title:                                                                                , recorded:05.09.19 01.34.58, sampling:128, subject:                                                                                , labels:COUNTER INTERPOLATED AF3 F7 F3 FC5 T7 P7 O1 O2 P8 T8 FC6 F4 F8 AF4 RAW_CQ CQ_AF3 CQ_F7 CQ_F3 CQ_FC5 CQ_T7 CQ_P7 CQ_O1 CQ_O2 CQ_P8 CQ_T8 CQ_FC6 CQ_F4 CQ_F8 CQ_AF4 CQ_CMS CQ_DRL GYROX GYROY MARKER, chan:36, units:emotiv
98.00000000000000000000, 0.00000000000000000000, 4263.07681883110580000000, 4465.64091644187010000000, 4355.38450888158060000000, 5008.71782623883250000000, 4259.99989582942360000000, 4292.82040784737000000000, 4026.66656820183380000000, 4474.87168544691850000000, 4504.61527446318270000000, 4839.99988164657500000000, 4129.23066825791740000000, 4042.56400371052680000000, 4094.87169473912900000000, 4428.71784042168020000000, 463.00000000000000000000, 4.00000000000000000000, 4.00000000000000000000, 4.00000000000000000000, 4.00000000000000000000, 4.00000000000000000000, 4.00000000000000000000, 4.00000000000000000000, 4.00000000000000000000, 4.00000000000000000000, 4.00000000000000000000, 4.00000000000000000000, 4.00000000000000000000, 4.00000000000000000000, 4.00000000000000000000, 4.00000000000000000000, 4.00000000000000000000, 1667.00000000000000000000, 1687.00000000000000000000, 0.00000000000000000000
99.00000000000000000000, 0.00000000000000000000, 4261.53835733026430000000, 4463.07681394046810000000, 4356.92297038242210000000, 5004.10244173630870000000, 4263.07681883110580000000, 4299.48707435101550000000, 4034.87169620632040000000, 4475.89732644747890000000, 4507.17937696458470000000, 4846.15372764994030000000, 4136.41015526184310000000, 4046.15374721248960000000, 4095.89733573968990000000, 4429.74348142224150000000, 441.00000000000000000000, 4.00000000000000000000, 4.00000000000000000000, 4.00000000000000000000, 4.00000000000000000000, 4.00000000000000000000, 4.00000000000000000000, 4.00000000000000000000, 4.00000000000000000000, 4.00000000000000000000, 4.00000000000000000000, 4.00000000000000000000, 4.00000000000000000000, 4.00000000000000000000, 4.00000000000000000000, 4.00000000000000000000, 4.00000000000000000000, 1668.00000000000000000000, 1688.00000000000000000000, 0.00000000000000000000
100.00000000000000000000, 0.00000000000000000000, 4269.74348533475130000000, 4474.87168544691850000000, 4363.58963688606760000000, 5010.25628773967310000000, 4264.61528033194740000000, 4294.35886934821160000000, 4033.84605520575950000000, 4476.92296744803930000000, 4509.23065896570640000000, 4841.53834314741650000000, 4146.66656526745100000000, 4047.17938821305050000000, 4095.89733573968990000000, 4430.25630192252170000000, 418.00000000000000000000, 4.00000000000000000000, 4.00000000000000000000, 4.00000000000000000000, 4.00000000000000000000, 4.00000000000000000000, 4.00000000000000000000, 4.00000000000000000000, 4.00000000000000000000, 4.00000000000000000000, 4.00000000000000000000, 4.00000000000000000000, 4.00000000000000000000, 4.00000000000000000000, 4.00000000000000000000, 4.00000000000000000000, 4.00000000000000000000, 1668.00000000000000000000, 1688.00000000000000000000, 0.00000000000000000000
101.00000000000000000000, 0.00000000000000000000, 4275.38451083783550000000, 4481.02553145028290000000, 4365.64091888718940000000, 5019.99987724500170000000, 4266.15374183278800000000, 4289.74348484568780000000, 4022.05118369931010000000, 4475.89732644747890000000, 4508.20501796514510000000, 4837.94859964545320000000, 4139.99989876380550000000, 4045.12810621192880000000, 4093.33323323828790000000, 4429.74348142224150000000, 451.00000000000000000000, 4.00000000000000000000, 4.00000000000000000000, 4.00000000000000000000, 4.00000000000000000000, 4.00000000000000000000, 4.00000000000000000000, 4.00000000000000000000, 4.00000000000000000000, 4.00000000000000000000, 4.00000000000000000000, 4.00000000000000000000, 4.00000000000000000000, 4.00000000000000000000, 4.00000000000000000000, 4.00000000000000000000, 4.00000000000000000000, 1669.00000000000000000000, 1688.00000000000000000000, 0.00000000000000000000
102.00000000000000000000, 0.00000000000000000000, 4276.92297233867700000000, 4475.89732644747890000000, 4365.12809838690920000000, 5016.92295424331860000000, 4267.69220333362950000000, 4290.76912584624820000000, 4019.48708119790760000000, 4469.23065994383340000000, 4501.53835146149960000000, 4840.51270214685520000000, 4131.79477075931940000000, 4045.12810621192880000000, 4093.33323323828790000000, 4429.23066092196130000000, 463.00000000000000000000, 4.00000000000000000000, 4.00000000000000000000, 4.00000000000000000000, 4.00000000000000000000, 4.00000000000000000000, 4.00000000000000000000, 4.00000000000000000000, 4.00000000000000000000, 4.00000000000000000000, 4.00000000000000000000, 4.00000000000000000000, 4.00000000000000000000, 4.00000000000000000000, 4.00000000000000000000, 4.00000000000000000000, 4.00000000000000000000, 1669.00000000000000000000, 1688.00000000000000000000, 0.00000000000000000000
103.00000000000000000000, 0.00000000000000000000, 4279.99989534035920000000, 4476.92296744803930000000, 4368.20502138859140000000, 5010.25628773967310000000, 4270.25630583503150000000, 4294.87168984849180000000, 4028.71785020295560000000, 4466.15373694215120000000, 4499.48706946037780000000, 4842.05116364769670000000, 4137.94861676268370000000, 4046.15374721248960000000, 4096.41015623997010000000, 4430.25630192252170000000, 441.00000000000000000000, 4.00000000000000000000, 4.00000000000000000000, 4.00000000000000000000, 4.00000000000000000000, 4.00000000000000000000, 4.00000000000000000000, 4.00000000000000000000, 4.00000000000000000000, 4.00000000000000000000, 4.00000000000000000000, 4.00000000000000000000, 4.00000000000000000000, 4.00000000000000000000, 4.00000000000000000000, 4.00000000000000000000, 4.00000000000000000000, 1670.00000000000000000000, 1688.00000000000000000000, 0.00000000000000000000
104.00000000000000000000, 0.00000000000000000000, 4280.51271584064030000000, 4485.64091595280660000000, 4368.20502138859140000000, 5017.43577474359880000000, 4272.30758783615330000000, 4298.46143335045510000000, 4034.35887570603970000000, 4469.23065994383340000000, 4501.02553096121940000000, 4836.92295864489280000000, 4140.51271926408660000000, 4042.56400371052680000000, 4097.43579724053140000000, 4429.74348142224150000000, 418.00000000000000000000, 4.00000000000000000000, 4.00000000000000000000, 4.00000000000000000000, 4.00000000000000000000, 4.00000000000000000000, 4.00000000000000000000, 4.00000000000000000000, 4.00000000000000000000, 4.00000000000000000000, 4.00000000000000000000, 4.00000000000000000000, 4.00000000000000000000, 4.00000000000000000000, 4.00000000000000000000, 4.00000000000000000000, 4.00000000000000000000, 1670.00000000000000000000, 1688.00000000000000000000, 0.00000000000000000000
105.00000000000000000000, 0.00000000000000000000, 4277.94861333923840000000, 4482.56399295112440000000, 4362.56399588550630000000, 5023.07680024668390000000, 4269.23066483447110000000, 4298.46143335045510000000, 4032.30759370491840000000, 4464.61527544130970000000, 4495.89732595841540000000, 4828.71783064040570000000, 4130.76912975875800000000, 4035.89733720688130000000, 4092.30759223772700000000, 4426.15373792027820000000, 451.00000000000000000000, 4.00000000000000000000, 4.00000000000000000000, 4.00000000000000000000, 4.00000000000000000000, 4.00000000000000000000, 4.00000000000000000000, 4.00000000000000000000, 4.00000000000000000000, 4.00000000000000000000, 4.00000000000000000000, 4.00000000000000000000, 4.00000000000000000000, 4.00000000000000000000, 4.00000000000000000000, 4.00000000000000000000, 4.00000000000000000000, 1671.00000000000000000000, 1688.00000000000000000000, 0.00000000000000000000
106.00000000000000000000, 0.00000000000000000000, 4276.92297233867700000000, 4471.28194194495520000000, 4362.56399588550630000000, 5014.87167224219680000000, 4268.71784433419090000000, 4295.38451034877200000000, 4028.20502970267490000000, 4462.05117293990770000000, 4493.33322345701340000000, 4828.20501014012550000000, 4130.76912975875800000000, 4038.46143970828330000000, 4087.69220773520330000000, 4425.64091741999800000000, 463.00000000000000000000, 4.00000000000000000000, 4.00000000000000000000, 4.00000000000000000000, 4.00000000000000000000, 4.00000000000000000000, 4.00000000000000000000, 4.00000000000000000000, 4.00000000000000000000, 4.00000000000000000000, 4.00000000000000000000, 4.00000000000000000000, 4.00000000000000000000, 4.00000000000000000000, 4.00000000000000000000, 4.00000000000000000000, 4.00000000000000000000, 1673.00000000000000000000, 1685.00000000000000000000, 0.00000000000000000000
107.00000000000000000000, 0.00000000000000000000, 4276.92297233867700000000, 4471.79476244523540000000, 4366.66655988774980000000, 5011.79474924051460000000, 4276.41015183839680000000, 4293.84604884793040000000, 4026.66656820183380000000, 4471.28194194495520000000, 4501.02553096121940000000, 4836.41013814461170000000, 4143.07682176548860000000, 4046.66656771276980000000, 4094.87169473912900000000, 4429.74348142224150000000, 441.00000000000000000000, 4.00000000000000000000, 4.00000000000000000000, 4.00000000000000000000, 4.00000000000000000000, 4.00000000000000000000, 4.00000000000000000000, 4.00000000000000000000, 4.00000000000000000000, 4.00000000000000000000, 4.00000000000000000000, 4.00000000000000000000, 4.00000000000000000000, 4.00000000000000000000, 4.00000000000000000000, 4.00000000000000000000, 4.00000000000000000000, 1672.00000000000000000000, 1686.00000000000000000000, 0.00000000000000000000
108.00000000000000000000, 0.00000000000000000000, 4274.35886983727510000000, 4481.02553145028290000000, 4365.12809838690920000000, 5015.89731324275820000000, 4277.43579283895720000000, 4298.97425385073530000000, 4033.84605520575950000000, 4477.43578794832050000000, 4507.17937696458470000000, 4842.05116364769670000000, 4143.58964226576880000000, 4045.12810621192880000000, 4101.02554074249380000000, 4429.74348142224150000000, 418.00000000000000000000, 4.00000000000000000000, 4.00000000000000000000, 4.00000000000000000000, 4.00000000000000000000, 4.00000000000000000000, 4.00000000000000000000, 4.00000000000000000000, 4.00000000000000000000, 4.00000000000000000000, 4.00000000000000000000, 4.00000000000000000000, 4.00000000000000000000, 4.00000000000000000000, 4.00000000000000000000, 4.00000000000000000000, 4.00000000000000000000, 1674.00000000000000000000, 1684.00000000000000000000, 0.00000000000000000000
109.00000000000000000000, 0.00000000000000000000, 4271.28194683559290000000, 4482.05117245084420000000, 4364.10245738634790000000, 5016.92295424331860000000, 4271.28194683559290000000, 4303.58963835325900000000, 4034.35887570603970000000, 4473.84604444635720000000, 4508.20501796514510000000, 4844.61526614909870000000, 4138.46143726296490000000, 4042.56400371052680000000, 4097.43579724053140000000, 4429.74348142224150000000, 451.00000000000000000000, 4.00000000000000000000, 4.00000000000000000000, 4.00000000000000000000, 4.00000000000000000000, 4.00000000000000000000, 4.00000000000000000000, 4.00000000000000000000, 4.00000000000000000000, 4.00000000000000000000, 4.00000000000000000000, 4.00000000000000000000, 4.00000000000000000000, 4.00000000000000000000, 4.00000000000000000000, 4.00000000000000000000, 4.00000000000000000000, 1673.00000000000000000000, 1683.00000000000000000000, 0.00000000000000000000
110.00000000000000000000, 0.00000000000000000000, 4268.71784433419090000000, 4479.48706994944220000000, 4365.64091888718940000000, 5014.35885174191660000000, 4272.82040833643350000000, 4296.41015134933330000000, 4026.15374770155310000000, 4472.82040344579670000000, 4504.61527446318270000000, 4843.07680464825720000000, 4139.48707826352530000000, 4045.64092671220900000000, 4093.84605373856810000000, 4431.79476342336330000000, 463.00000000000000000000, 4.00000000000000000000, 4.00000000000000000000, 4.00000000000000000000, 4.00000000000000000000, 4.00000000000000000000, 4.00000000000000000000, 4.00000000000000000000, 4.00000000000000000000, 4.00000000000000000000, 4.00000000000000000000, 4.00000000000000000000, 4.00000000000000000000, 4.00000000000000000000, 4.00000000000000000000, 4.00000000000000000000, 4.00000000000000000000, 1674.00000000000000000000, 1682.00000000000000000000, 0.00000000000000000000
111.00000000000000000000, 0.00000000000000000000, 4264.10245983166710000000, 4472.82040344579670000000, 4358.46143188326370000000, 5005.12808273686910000000, 4272.30758783615330000000, 4294.87168984849180000000, 4027.69220920239470000000, 4475.38450594719870000000, 4498.46142845981740000000, 4834.35885614348990000000, 4138.97425776324510000000, 4041.53836270996590000000, 4092.30759223772700000000, 4424.10245591915650000000, 441.00000000000000000000, 4.00000000000000000000, 4.00000000000000000000, 4.00000000000000000000, 4.00000000000000000000, 4.00000000000000000000, 4.00000000000000000000, 4.00000000000000000000, 4.00000000000000000000, 4.00000000000000000000, 4.00000000000000000000, 4.00000000000000000000, 4.00000000000000000000, 4.00000000000000000000, 4.00000000000000000000, 4.00000000000000000000, 4.00000000000000000000, 1673.00000000000000000000, 1681.00000000000000000000, 0.00000000000000000000
112.00000000000000000000, 0.00000000000000000000, 4262.05117783054540000000, 4468.20501894327300000000, 4351.79476537961820000000, 5005.12808273686910000000, 4261.02553682998400000000, 4297.43579234989370000000, 4032.30759370491840000000, 4471.28194194495520000000, 4499.48706946037780000000, 4833.84603564320970000000, 4137.43579626240350000000, 4037.43579870772240000000, 4089.74348973632500000000, 4417.43578941551100000000, 418.00000000000000000000, 4.00000000000000000000, 4.00000000000000000000, 4.00000000000000000000, 4.00000000000000000000, 4.00000000000000000000, 4.00000000000000000000, 4.00000000000000000000, 4.00000000000000000000, 4.00000000000000000000, 4.00000000000000000000, 4.00000000000000000000, 4.00000000000000000000, 4.00000000000000000000, 4.00000000000000000000, 4.00000000000000000000, 4.00000000000000000000, 1672.00000000000000000000, 1681.00000000000000000000, 0.00000000000000000000
113.00000000000000000000, 0.00000000000000000000, 4262.56399833082560000000, 4472.30758294551560000000, 4354.87168838130040000000, 5017.43577474359880000000, 4259.99989582942360000000, 4287.69220284456610000000, 4022.56400419959030000000, 4460.51271143906620000000, 4497.43578745925610000000, 4837.94859964545320000000, 4136.92297576212330000000, 4035.89733720688130000000, 4087.69220773520330000000, 4423.58963541887620000000, 451.00000000000000000000, 4.00000000000000000000, 4.00000000000000000000, 4.00000000000000000000, 4.00000000000000000000, 4.00000000000000000000, 4.00000000000000000000, 4.00000000000000000000, 4.00000000000000000000, 4.00000000000000000000, 4.00000000000000000000, 4.00000000000000000000, 4.00000000000000000000, 4.00000000000000000000, 4.00000000000000000000, 4.00000000000000000000, 4.00000000000000000000, 1671.00000000000000000000, 1681.00000000000000000000, 0.00000000000000000000
114.00000000000000000000, 0.00000000000000000000, 4268.71784433419090000000, 4477.43578794832050000000, 4360.51271388438540000000, 5021.53833874584230000000, 4271.28194683559290000000, 4280.51271584064030000000, 4013.84605569482350000000, 4458.97424993822550000000, 4491.79476195617190000000, 4835.89731764433150000000, 4141.02553976436680000000, 4038.97426020856350000000, 4093.84605373856810000000, 4429.23066092196130000000, 463.00000000000000000000, 4.00000000000000000000, 4.00000000000000000000, 4.00000000000000000000, 4.00000000000000000000, 4.00000000000000000000, 4.00000000000000000000, 4.00000000000000000000, 4.00000000000000000000, 4.00000000000000000000, 4.00000000000000000000, 4.00000000000000000000, 4.00000000000000000000, 4.00000000000000000000, 4.00000000000000000000, 4.00000000000000000000, 4.00000000000000000000, 1672.00000000000000000000, 1680.00000000000000000000, 0.00000000000000000000
115.00000000000000000000, 0.00000000000000000000, 4273.33322883671460000000, 4478.46142894888090000000, 4363.07681638578740000000, 5013.33321074135620000000, 4274.87169033755530000000, 4291.79476684680960000000, 4022.56400419959030000000, 4475.38450594719870000000, 4502.05117196177980000000, 4839.99988164657500000000, 4151.28194976997470000000, 4047.69220871333070000000, 4102.56400224333540000000, 4429.23066092196130000000, 441.00000000000000000000, 4.00000000000000000000, 4.00000000000000000000, 4.00000000000000000000, 4.00000000000000000000, 4.00000000000000000000, 4.00000000000000000000, 4.00000000000000000000, 4.00000000000000000000, 4.00000000000000000000, 4.00000000000000000000, 4.00000000000000000000, 4.00000000000000000000, 4.00000000000000000000, 4.00000000000000000000, 4.00000000000000000000, 4.00000000000000000000, 1669.00000000000000000000, 1679.00000000000000000000, 0.00000000000000000000
116.00000000000000000000, 0.00000000000000000000, 4267.69220333362950000000, 4475.89732644747890000000, 4362.56399588550630000000, 5009.23064673911270000000, 4267.69220333362950000000, 4303.07681785297880000000, 4036.92297820744220000000, 4481.53835195056310000000, 4510.25629996626690000000, 4844.10244564881850000000, 4152.82041127081630000000, 4051.28195221529360000000, 4100.51272024221360000000, 4428.71784042168020000000, 418.00000000000000000000, 4.00000000000000000000, 4.00000000000000000000, 4.00000000000000000000, 4.00000000000000000000, 4.00000000000000000000, 4.00000000000000000000, 4.00000000000000000000, 4.00000000000000000000, 4.00000000000000000000, 4.00000000000000000000, 4.00000000000000000000, 4.00000000000000000000, 4.00000000000000000000, 4.00000000000000000000, 4.00000000000000000000, 4.00000000000000000000, 1670.00000000000000000000, 1680.00000000000000000000, 0.00000000000000000000
117.00000000000000000000, 0.00000000000000000000, 4264.10245983166710000000, 4476.41014694775910000000, 4365.12809838690920000000, 5014.87167224219680000000, 4267.69220333362950000000, 4299.48707435101550000000, 4035.38451670660060000000, 4474.35886494663740000000, 4504.61527446318270000000, 4841.53834314741650000000, 4149.74348826913410000000, 4050.25631121473270000000, 4101.02554074249380000000, 4431.28194292308220000000, 451.00000000000000000000, 4.00000000000000000000, 4.00000000000000000000, 4.00000000000000000000, 4.00000000000000000000, 4.00000000000000000000, 4.00000000000000000000, 4.00000000000000000000, 4.00000000000000000000, 4.00000000000000000000, 4.00000000000000000000, 4.00000000000000000000, 4.00000000000000000000, 4.00000000000000000000, 4.00000000000000000000, 4.00000000000000000000, 4.00000000000000000000, 1671.00000000000000000000, 1678.00000000000000000000, 0.00000000000000000000
118.00000000000000000000, 0.00000000000000000000, 4268.20502383390980000000, 4476.41014694775910000000, 4367.69220088831120000000, 5015.89731324275820000000, 4273.84604933699480000000, 4292.30758734708980000000, 4027.17938870211400000000, 4474.35886494663740000000, 4503.58963346262140000000, 4842.05116364769670000000, 4152.30759077053610000000, 4052.82041371613510000000, 4107.17938674585910000000, 4437.43578892644750000000, 463.00000000000000000000, 4.00000000000000000000, 4.00000000000000000000, 4.00000000000000000000, 4.00000000000000000000, 4.00000000000000000000, 4.00000000000000000000, 4.00000000000000000000, 4.00000000000000000000, 4.00000000000000000000, 4.00000000000000000000, 4.00000000000000000000, 4.00000000000000000000, 4.00000000000000000000, 4.00000000000000000000, 4.00000000000000000000, 4.00000000000000000000, 1670.00000000000000000000, 1681.00000000000000000000, 0.00000000000000000000
119.00000000000000000000, 0.00000000000000000000, 4272.30758783615330000000, 4475.38450594719870000000, 4366.66655988774980000000, 5012.30756974079490000000, 4275.89733133811660000000, 4290.25630534596800000000, 4028.71785020295560000000, 4473.84604444635720000000, 4507.69219746486490000000, 4844.61526614909870000000, 4155.38451377221830000000, 4054.35887521697620000000, 4109.74348924726110000000, 4442.56399392925140000000, 441.00000000000000000000, 4.00000000000000000000, 4.00000000000000000000, 4.00000000000000000000, 4.00000000000000000000, 4.00000000000000000000, 4.00000000000000000000, 4.00000000000000000000, 4.00000000000000000000, 4.00000000000000000000, 4.00000000000000000000, 4.00000000000000000000, 4.00000000000000000000, 4.00000000000000000000, 4.00000000000000000000, 4.00000000000000000000, 4.00000000000000000000, 1670.00000000000000000000, 1680.00000000000000000000, 0.00000000000000000000
120.00000000000000000000, 0.00000000000000000000, 4274.35886983727510000000, 4476.41014694775910000000, 4367.17938038803090000000, 5014.87167224219680000000, 4275.38451083783550000000, 4295.89733084905220000000, 4038.46143970828330000000, 4474.87168544691850000000, 4512.30758196738860000000, 4848.71783015134220000000, 4153.33323177109650000000, 4053.84605471669560000000, 4111.79477124838290000000, 4441.02553242841080000000, 418.00000000000000000000, 4.00000000000000000000, 4.00000000000000000000, 4.00000000000000000000, 4.00000000000000000000, 4.00000000000000000000, 4.00000000000000000000, 4.00000000000000000000, 4.00000000000000000000, 4.00000000000000000000, 4.00000000000000000000, 4.00000000000000000000, 4.00000000000000000000, 4.00000000000000000000, 4.00000000000000000000, 4.00000000000000000000, 4.00000000000000000000, 1669.00000000000000000000, 1681.00000000000000000000, 0.00000000000000000000
121.00000000000000000000, 0.00000000000000000000, 4279.99989534035920000000, 4480.51271095000270000000, 4366.66655988774980000000, 5023.58962074696410000000, 4278.46143383951860000000, 4307.69220235550260000000, 4042.56400371052680000000, 4484.61527495224620000000, 4522.05117147271630000000, 4857.43577865610950000000, 4154.35887277165780000000, 4059.48708021978020000000, 4120.51271975315010000000, 4442.05117342897120000000, 451.00000000000000000000, 4.00000000000000000000, 4.00000000000000000000, 4.00000000000000000000, 4.00000000000000000000, 4.00000000000000000000, 4.00000000000000000000, 4.00000000000000000000, 4.00000000000000000000, 4.00000000000000000000, 4.00000000000000000000, 4.00000000000000000000, 4.00000000000000000000, 4.00000000000000000000, 4.00000000000000000000, 4.00000000000000000000, 4.00000000000000000000, 1670.00000000000000000000, 1683.00000000000000000000, 0.00000000000000000000
122.00000000000000000000, 0.00000000000000000000, 4279.48707484007900000000, 4484.61527495224620000000, 4361.02553438466570000000, 5022.05115924612260000000, 4281.02553634092060000000, 4311.79476635774520000000, 4038.46143970828330000000, 4484.10245445196600000000, 4517.94860747047280000000, 4855.89731715526800000000, 4156.41015477277960000000, 4062.05118272118260000000, 4121.53836075371050000000, 4446.15373743121470000000, 463.00000000000000000000, 4.00000000000000000000, 4.00000000000000000000, 4.00000000000000000000, 4.00000000000000000000, 4.00000000000000000000, 4.00000000000000000000, 4.00000000000000000000, 4.00000000000000000000, 4.00000000000000000000, 4.00000000000000000000, 4.00000000000000000000, 4.00000000000000000000, 4.00000000000000000000, 4.00000000000000000000, 4.00000000000000000000, 4.00000000000000000000, 1669.00000000000000000000, 1681.00000000000000000000, 0.00000000000000000000
123.00000000000000000000, 0.00000000000000000000, 4272.30758783615330000000, 4479.99989044972240000000, 4357.43579088270230000000, 5013.84603124163640000000, 4279.99989534035920000000, 4303.07681785297880000000, 4032.30759370491840000000, 4468.20501894327300000000, 4504.61527446318270000000, 4844.10244564881850000000, 4152.30759077053610000000, 4053.33323421641530000000, 4112.82041224894330000000, 4443.58963492981270000000, 441.00000000000000000000, 4.00000000000000000000, 4.00000000000000000000, 4.00000000000000000000, 4.00000000000000000000, 4.00000000000000000000, 4.00000000000000000000, 4.00000000000000000000, 4.00000000000000000000, 4.00000000000000000000, 4.00000000000000000000, 4.00000000000000000000, 4.00000000000000000000, 4.00000000000000000000, 4.00000000000000000000, 4.00000000000000000000, 4.00000000000000000000, 1669.00000000000000000000, 1683.00000000000000000000, 0.00000000000000000000
124.00000000000000000000, 0.00000000000000000000, 4272.82040833643350000000, 4479.99989044972240000000, 4361.53835488494590000000, 5018.46141574416010000000, 4276.92297233867700000000, 4297.43579234989370000000, 4029.74349120351600000000, 4463.07681394046810000000, 4502.56399246206090000000, 4841.02552264713540000000, 4150.25630876941430000000, 4049.23067021417180000000, 4112.30759174866310000000, 4441.02553242841080000000, 418.00000000000000000000, 4.00000000000000000000, 4.00000000000000000000, 4.00000000000000000000, 4.00000000000000000000, 4.00000000000000000000, 4.00000000000000000000, 4.00000000000000000000, 4.00000000000000000000, 4.00000000000000000000, 4.00000000000000000000, 4.00000000000000000000, 4.00000000000000000000, 4.00000000000000000000, 4.00000000000000000000, 4.00000000000000000000, 4.00000000000000000000, 1670.00000000000000000000, 1683.00000000000000000000, 0.00000000000000000000
125.00000000000000000000, 0.00000000000000000000, 4279.99989534035920000000, 4489.74347995505010000000, 4367.69220088831120000000, 5025.12808224780570000000, 4277.94861333923840000000, 4299.48707435101550000000, 4034.35887570603970000000, 4473.33322394607690000000, 4507.69219746486490000000, 4849.23065065162250000000, 4151.79477027025500000000, 4055.38451621753710000000, 4118.46143775202840000000, 4443.07681442953250000000, 451.00000000000000000000, 4.00000000000000000000, 4.00000000000000000000, 4.00000000000000000000, 4.00000000000000000000, 4.00000000000000000000, 4.00000000000000000000, 4.00000000000000000000, 4.00000000000000000000, 4.00000000000000000000, 4.00000000000000000000, 4.00000000000000000000, 4.00000000000000000000, 4.00000000000000000000, 4.00000000000000000000, 4.00000000000000000000, 4.00000000000000000000, 1670.00000000000000000000, 1683.00000000000000000000, 0.00000000000000000000
126.00000000000000000000, 0.00000000000000000000, 4281.53835684120080000000, 4494.87168495785410000000, 4369.74348288943290000000, 5028.20500524948780000000, 4280.51271584064030000000, 4301.02553585185710000000, 4035.89733720688130000000, 4479.48706994944220000000, 4509.74347946598660000000, 4852.82039415358580000000, 4152.82041127081630000000, 4057.94861871893910000000, 4119.48707875258880000000, 4444.61527593037320000000, 463.00000000000000000000, 4.00000000000000000000, 4.00000000000000000000, 4.00000000000000000000, 4.00000000000000000000, 4.00000000000000000000, 4.00000000000000000000, 4.00000000000000000000, 4.00000000000000000000, 4.00000000000000000000, 4.00000000000000000000, 4.00000000000000000000, 4.00000000000000000000, 4.00000000000000000000, 4.00000000000000000000, 4.00000000000000000000, 4.00000000000000000000, 1670.00000000000000000000, 1682.00000000000000000000, 0.00000000000000000000
127.00000000000000000000, 0.00000000000000000000, 4277.94861333923840000000, 4491.28194145589170000000, 4367.17938038803090000000, 5026.15372324836610000000, 4281.02553634092060000000, 4301.53835635213730000000, 4033.84605520575950000000, 4475.89732644747890000000, 4508.71783846542530000000, 4846.15372764994030000000, 4154.35887277165780000000, 4051.28195221529360000000, 4111.28195074810260000000, 4443.07681442953250000000, 441.00000000000000000000, 4.00000000000000000000, 4.00000000000000000000, 4.00000000000000000000, 4.00000000000000000000, 4.00000000000000000000, 4.00000000000000000000, 4.00000000000000000000, 4.00000000000000000000, 4.00000000000000000000, 4.00000000000000000000, 4.00000000000000000000, 4.00000000000000000000, 4.00000000000000000000, 4.00000000000000000000, 4.00000000000000000000, 4.00000000000000000000, 1671.00000000000000000000, 1683.00000000000000000000, 0.00000000000000000000
128.00000000000000000000, 0.00000000000000000000, 4276.41015183839680000000, 4488.71783895448970000000, 4364.10245738634790000000, 5021.02551824556210000000, 4278.97425433979880000000, 4307.17938185522140000000, 4035.38451670660060000000, 4472.30758294551560000000, 4505.12809496346290000000, 4842.56398414797700000000, 4156.41015477277960000000, 4049.74349071445250000000, 4104.61528424445710000000, 4440.51271192813060000000, 418.00000000000000000000, 4.00000000000000000000, 4.00000000000000000000, 4.00000000000000000000, 4.00000000000000000000, 4.00000000000000000000, 4.00000000000000000000, 4.00000000000000000000, 4.00000000000000000000, 4.00000000000000000000, 4.00000000000000000000, 4.00000000000000000000, 4.00000000000000000000, 4.00000000000000000000, 4.00000000000000000000, 4.00000000000000000000, 4.00000000000000000000, 1671.00000000000000000000, 1683.00000000000000000000, 0.00000000000000000000
0.00000000000000000000, 0.00000000000000000000, 4279.48707484007900000000, 4488.71783895448970000000, 4366.15373938746960000000, 5021.53833874584230000000, 4276.92297233867700000000, 4308.20502285578280000000, 4035.38451670660060000000, 4476.41014694775910000000, 4505.64091546374310000000, 4846.15372764994030000000, 4152.82041127081630000000, 4054.87169571725640000000, 4112.82041224894330000000, 4442.05117342897120000000, 473.00000000000000000000, 4.00000000000000000000, 4.00000000000000000000, 4.00000000000000000000, 4.00000000000000000000, 4.00000000000000000000, 4.00000000000000000000, 4.00000000000000000000, 4.00000000000000000000, 4.00000000000000000000, 4.00000000000000000000, 4.00000000000000000000, 4.00000000000000000000, 4.00000000000000000000, 4.00000000000000000000, 4.00000000000000000000, 4.00000000000000000000, 1670.00000000000000000000, 1684.00000000000000000000, 0.00000000000000000000
1.00000000000000000000, 0.00000000000000000000, 4279.99989534035920000000, 4490.76912095561060000000, 4367.17938038803090000000, 5029.23064625004920000000, 4278.46143383951860000000, 4303.07681785297880000000, 4034.87169620632040000000, 4474.87168544691850000000, 4509.23065896570640000000, 4848.20500965106200000000, 4148.20502676829260000000, 4054.35887521697620000000, 4121.02554025343030000000, 4440.51271192813060000000, 471.00000000000000000000, 4.00000000000000000000, 4.00000000000000000000, 4.00000000000000000000, 4.00000000000000000000, 4.00000000000000000000, 4.00000000000000000000, 4.00000000000000000000, 4.00000000000000000000, 4.00000000000000000000, 4.00000000000000000000, 4.00000000000000000000, 4.00000000000000000000, 4.00000000000000000000, 4.00000000000000000000, 4.00000000000000000000, 4.00000000000000000000, 1671.00000000000000000000, 1683.00000000000000000000, 0.00000000000000000000
2.00000000000000000000, 0.00000000000000000000, 4272.30758783615330000000, 4490.25630045533030000000, 4362.56399588550630000000, 5028.71782574976810000000, 4279.99989534035920000000, 4298.46143335045510000000, 4035.89733720688130000000, 4466.15373694215120000000, 4504.61527446318270000000, 4844.61526614909870000000, 4153.33323177109650000000, 4051.79477271557430000000, 4113.33323274922440000000, 4437.94860942672770000000, 493.00000000000000000000, 4.00000000000000000000, 4.00000000000000000000, 4.00000000000000000000, 4.00000000000000000000, 4.00000000000000000000, 4.00000000000000000000, 4.00000000000000000000, 4.00000000000000000000, 4.00000000000000000000, 4.00000000000000000000, 4.00000000000000000000, 4.00000000000000000000, 4.00000000000000000000, 4.00000000000000000000, 4.00000000000000000000, 4.00000000000000000000, 1670.00000000000000000000, 1683.00000000000000000000, 0.00000000000000000000
3.00000000000000000000, 0.00000000000000000000, 4263.58963933138600000000, 4481.02553145028290000000, 4354.87168838130040000000, 5010.76910823995330000000, 4274.35886983727510000000, 4296.92297184961350000000, 4033.84605520575950000000, 4466.66655744243140000000, 4502.05117196177980000000, 4839.48706114629480000000, 4153.33323177109650000000, 4051.28195221529360000000, 4105.64092524501760000000, 4436.41014792588700000000, 470.00000000000000000000, 4.00000000000000000000, 4.00000000000000000000, 4.00000000000000000000, 4.00000000000000000000, 4.00000000000000000000, 4.00000000000000000000, 4.00000000000000000000, 4.00000000000000000000, 4.00000000000000000000, 4.00000000000000000000, 4.00000000000000000000, 4.00000000000000000000, 4.00000000000000000000, 4.00000000000000000000, 4.00000000000000000000, 4.00000000000000000000, 1670.00000000000000000000, 1685.00000000000000000000, 0.00000000000000000000
4.00000000000000000000, 0.00000000000000000000, 4260.51271632970380000000, 4470.25630094439480000000, 4352.30758587989840000000, 5002.56398023546720000000, 4259.99989582942360000000, 4296.92297184961350000000, 4030.76913220407690000000, 4474.87168544691850000000, 4505.12809496346290000000, 4836.92295864489280000000, 4142.56400126520750000000, 4045.12810621192880000000, 4102.56400224333540000000, 4429.74348142224150000000, 479.00000000000000000000, 4.00000000000000000000, 4.00000000000000000000, 4.00000000000000000000, 4.00000000000000000000, 4.00000000000000000000, 4.00000000000000000000, 4.00000000000000000000, 4.00000000000000000000, 4.00000000000000000000, 4.00000000000000000000, 4.00000000000000000000, 4.00000000000000000000, 4.00000000000000000000, 4.00000000000000000000, 4.00000000000000000000, 4.00000000000000000000, 1670.00000000000000000000, 1684.00000000000000000000, 0.00000000000000000000
5.00000000000000000000, 0.00000000000000000000, 4268.20502383390980000000, 4474.87168544691850000000, 4361.02553438466570000000, 5016.92295424331860000000, 4258.46143432858210000000, 4292.30758734708980000000, 4026.15374770155310000000, 4474.87168544691850000000, 4508.71783846542530000000, 4843.58962514853740000000, 4144.10246276604900000000, 4047.17938821305050000000, 4107.17938674585910000000, 4431.79476342336330000000, 477.00000000000000000000, 4.00000000000000000000, 4.00000000000000000000, 4.00000000000000000000, 4.00000000000000000000, 4.00000000000000000000, 4.00000000000000000000, 4.00000000000000000000, 4.00000000000000000000, 4.00000000000000000000, 4.00000000000000000000, 4.00000000000000000000, 4.00000000000000000000, 4.00000000000000000000, 4.00000000000000000000, 4.00000000000000000000, 4.00000000000000000000, 1670.00000000000000000000, 1687.00000000000000000000, 0.00000000000000000000
6.00000000000000000000, 0.00000000000000000000, 4274.35886983727510000000, 4479.99989044972240000000, 4363.07681638578740000000, 5025.12808224780570000000, 4272.30758783615330000000, 4290.76912584624820000000, 4023.58964520015120000000, 4477.43578794832050000000, 4514.35886396851040000000, 4854.87167615470660000000, 4156.41015477277960000000, 4057.43579821865890000000, 4116.92297625118680000000, 4444.10245543009300000000, 490.00000000000000000000, 4.00000000000000000000, 4.00000000000000000000, 4.00000000000000000000, 4.00000000000000000000, 4.00000000000000000000, 4.00000000000000000000, 4.00000000000000000000, 4.00000000000000000000, 4.00000000000000000000, 4.00000000000000000000, 4.00000000000000000000, 4.00000000000000000000, 4.00000000000000000000, 4.00000000000000000000, 4.00000000000000000000, 4.00000000000000000000, 1670.00000000000000000000, 1686.00000000000000000000, 0.00000000000000000000
7.00000000000000000000, 0.00000000000000000000, 4269.23066483447110000000, 4479.48706994944220000000, 4358.97425238354390000000, 5014.87167224219680000000, 4279.48707484007900000000, 4298.97425385073530000000, 4028.20502970267490000000, 4484.61527495224620000000, 4522.56399197299650000000, 4860.51270165779170000000, 4156.41015477277960000000, 4055.89733671781730000000, 4117.43579675146700000000, 4441.53835292869100000000, 446.00000000000000000000, 4.00000000000000000000, 4.00000000000000000000, 4.00000000000000000000, 4.00000000000000000000, 4.00000000000000000000, 4.00000000000000000000, 4.00000000000000000000, 4.00000000000000000000, 4.00000000000000000000, 4.00000000000000000000, 4.00000000000000000000, 4.00000000000000000000, 4.00000000000000000000, 4.00000000000000000000, 4.00000000000000000000, 4.00000000000000000000, 1670.00000000000000000000, 1687.00000000000000000000, 0.00000000000000000000
8.00000000000000000000, 0.00000000000000000000, 4261.53835733026430000000, 4477.94860844860070000000, 4356.41014988214190000000, 5010.76910823995330000000, 4274.35886983727510000000, 4302.56399735269770000000, 4031.79477320463770000000, 4482.05117245084420000000, 4525.64091497467960000000, 4859.48706065723040000000, 4150.25630876941430000000, 4049.74349071445250000000, 4110.25630974754130000000, 4430.25630192252170000000, 429.00000000000000000000, 4.00000000000000000000, 4.00000000000000000000, 4.00000000000000000000, 4.00000000000000000000, 4.00000000000000000000, 4.00000000000000000000, 4.00000000000000000000, 4.00000000000000000000, 4.00000000000000000000, 4.00000000000000000000, 4.00000000000000000000, 4.00000000000000000000, 4.00000000000000000000, 4.00000000000000000000, 4.00000000000000000000, 4.00000000000000000000, 1670.00000000000000000000, 1686.00000000000000000000, 0.00000000000000000000
9.00000000000000000000, 0.00000000000000000000, 4256.92297282774050000000, 4462.56399344018790000000, 4353.33322688045880000000, 5010.76910823995330000000, 4267.17938283334930000000, 4297.94861285017400000000, 4026.66656820183380000000, 4476.41014694775910000000, 4518.97424847103410000000, 4850.25629165218290000000, 4145.12810376661040000000, 4047.69220871333070000000, 4102.05118174305520000000, 4426.15373792027820000000, 429.00000000000000000000, 4.00000000000000000000, 4.00000000000000000000, 4.00000000000000000000, 4.00000000000000000000, 4.00000000000000000000, 4.00000000000000000000, 4.00000000000000000000, 4.00000000000000000000, 4.00000000000000000000, 4.00000000000000000000, 4.00000000000000000000, 4.00000000000000000000, 4.00000000000000000000, 4.00000000000000000000, 4.00000000000000000000, 4.00000000000000000000, 1670.00000000000000000000, 1687.00000000000000000000, 0.00000000000000000000
10.00000000000000000000, 0.00000000000000000000, 4253.84604982605830000000, 4448.20501943233650000000, 4348.71784237793510000000, 4999.99987773406520000000, 4262.05117783054540000000, 4293.33322834765020000000, 4019.99990169818830000000, 4464.61527544130970000000, 4502.56399246206090000000, 4834.87167664377100000000, 4131.79477075931940000000, 4034.87169620632040000000, 4089.74348973632500000000, 4418.46143041607230000000, 463.00000000000000000000, 4.00000000000000000000, 4.00000000000000000000, 4.00000000000000000000, 4.00000000000000000000, 4.00000000000000000000, 4.00000000000000000000, 4.00000000000000000000, 4.00000000000000000000, 4.00000000000000000000, 4.00000000000000000000, 4.00000000000000000000, 4.00000000000000000000, 4.00000000000000000000, 4.00000000000000000000, 4.00000000000000000000, 4.00000000000000000000, 1670.00000000000000000000, 1687.00000000000000000000, 0.00000000000000000000
11.00000000000000000000, 0.00000000000000000000, 4256.41015232746030000000, 4465.64091644187010000000, 4346.66656037681420000000, 5003.58962123602760000000, 4261.02553682998400000000, 4294.35886934821160000000, 4016.92297869650570000000, 4444.61527593037320000000, 4485.64091595280660000000, 4822.56398463704040000000, 4122.56400175427190000000, 4020.51272219846850000000, 4083.58964373295980000000, 4407.17937940990300000000, 441.00000000000000000000, 4.00000000000000000000, 4.00000000000000000000, 4.00000000000000000000, 4.00000000000000000000, 4.00000000000000000000, 4.00000000000000000000, 4.00000000000000000000, 4.00000000000000000000, 4.00000000000000000000, 4.00000000000000000000, 4.00000000000000000000, 4.00000000000000000000, 4.00000000000000000000, 4.00000000000000000000, 4.00000000000000000000, 4.00000000000000000000, 1670.00000000000000000000, 1688.00000000000000000000, 0.00000000000000000000
12.00000000000000000000, 0.00000000000000000000, 4269.74348533475130000000, 4494.35886445757390000000, 4352.82040638017860000000, 5024.10244124724430000000, 4268.20502383390980000000, 4295.38451034877200000000, 4017.94861969706650000000, 4443.07681442953250000000, 4486.15373645308680000000, 4825.12808713844240000000, 4131.79477075931940000000, 4029.23067070323580000000, 4090.25631023660530000000, 4411.79476391242680000000, 418.00000000000000000000, 4.00000000000000000000, 4.00000000000000000000, 4.00000000000000000000, 4.00000000000000000000, 4.00000000000000000000, 4.00000000000000000000, 4.00000000000000000000, 4.00000000000000000000, 4.00000000000000000000, 4.00000000000000000000, 4.00000000000000000000, 4.00000000000000000000, 4.00000000000000000000, 4.00000000000000000000, 4.00000000000000000000, 4.00000000000000000000, 1670.00000000000000000000, 1688.00000000000000000000, 0.00000000000000000000
13.00000000000000000000, 0.00000000000000000000, 4279.48707484007900000000, 4498.97424896009760000000, 4362.05117538522610000000, 5032.82038975201160000000, 4276.41015183839680000000, 4295.38451034877200000000, 4019.48708119790760000000, 4457.43578843738400000000, 4496.41014645869560000000, 4836.92295864489280000000, 4139.48707826352530000000, 4044.10246521136790000000, 4088.71784873576420000000, 4424.10245591915650000000, 451.00000000000000000000, 4.00000000000000000000, 4.00000000000000000000, 4.00000000000000000000, 4.00000000000000000000, 4.00000000000000000000, 4.00000000000000000000, 4.00000000000000000000, 4.00000000000000000000, 4.00000000000000000000, 4.00000000000000000000, 4.00000000000000000000, 4.00000000000000000000, 4.00000000000000000000, 4.00000000000000000000, 4.00000000000000000000, 4.00000000000000000000, 1669.00000000000000000000, 1687.00000000000000000000, 0.00000000000000000000
14.00000000000000000000, 0.00000000000000000000, 4283.58963884232250000000, 4494.87168495785410000000, 4368.71784188887160000000, 5031.79474875145120000000, 4278.97425433979880000000, 4297.43579234989370000000, 4022.05118369931010000000, 4461.53835243962750000000, 4495.89732595841540000000, 4838.46142014573340000000, 4139.48707826352530000000, 4047.69220871333070000000, 4091.28195123716610000000, 4431.28194292308220000000, 463.00000000000000000000, 4.00000000000000000000, 4.00000000000000000000, 4.00000000000000000000, 4.00000000000000000000, 4.00000000000000000000, 4.00000000000000000000, 4.00000000000000000000, 4.00000000000000000000, 4.00000000000000000000, 4.00000000000000000000, 4.00000000000000000000, 4.00000000000000000000, 4.00000000000000000000, 4.00000000000000000000, 4.00000000000000000000, 4.00000000000000000000, 1670.00000000000000000000, 1687.00000000000000000000, 0.00000000000000000000
15.00000000000000000000, 0.00000000000000000000, 4285.64092084344430000000, 4496.41014645869560000000, 4371.28194439027360000000, 5029.23064625004920000000, 4280.51271584064030000000, 4296.41015134933330000000, 4028.20502970267490000000, 4461.53835243962750000000, 4491.28194145589170000000, 4836.41013814461170000000, 4143.58964226576880000000, 4053.84605471669560000000, 4106.15374574529870000000, 4434.87168642504550000000, 441.00000000000000000000, 4.00000000000000000000, 4.00000000000000000000, 4.00000000000000000000, 4.00000000000000000000, 4.00000000000000000000, 4.00000000000000000000, 4.00000000000000000000, 4.00000000000000000000, 4.00000000000000000000, 4.00000000000000000000, 4.00000000000000000000, 4.00000000000000000000, 4.00000000000000000000, 4.00000000000000000000, 4.00000000000000000000, 4.00000000000000000000, 1669.00000000000000000000, 1685.00000000000000000000, 0.00000000000000000000
16.00000000000000000000, 0.00000000000000000000, 4282.05117734148100000000, 4492.30758245645210000000, 4370.25630338971310000000, 5027.17936424892740000000, 4274.87169033755530000000, 4297.43579234989370000000, 4030.25631170379670000000, 4466.15373694215120000000, 4492.82040295673230000000, 4835.38449714405120000000, 4146.15374476717080000000, 4056.92297771837820000000, 4098.46143824109190000000, 4433.33322492420390000000, 0.00000000000000000000, 4.00000000000000000000, 4.00000000000000000000, 4.00000000000000000000, 4.00000000000000000000, 4.00000000000000000000, 4.00000000000000000000, 4.00000000000000000000, 4.00000000000000000000, 4.00000000000000000000, 4.00000000000000000000, 4.00000000000000000000, 4.00000000000000000000, 4.00000000000000000000, 4.00000000000000000000, 4.00000000000000000000, 4.00000000000000000000, 1669.00000000000000000000, 1687.00000000000000000000, 0.00000000000000000000
17.00000000000000000000, 0.00000000000000000000, 4278.97425433979880000000, 4495.38450545813430000000, 4364.61527788662810000000, 5028.20500524948780000000, 4265.12810083222760000000, 4293.84604884793040000000, 4023.58964520015120000000, 4462.56399344018790000000, 4490.76912095561060000000, 4827.69218963984530000000, 4136.92297576212330000000, 4045.64092671220900000000, 4081.53836173183840000000, 4427.69219942111980000000, 0.00000000000000000000, 4.00000000000000000000, 4.00000000000000000000, 4.00000000000000000000, 4.00000000000000000000, 4.00000000000000000000, 4.00000000000000000000, 4.00000000000000000000, 4.00000000000000000000, 4.00000000000000000000, 4.00000000000000000000, 4.00000000000000000000, 4.00000000000000000000, 4.00000000000000000000, 4.00000000000000000000, 4.00000000000000000000, 4.00000000000000000000, 1670.00000000000000000000, 1685.00000000000000000000, 0.00000000000000000000
18.00000000000000000000, 0.00000000000000000000, 4281.02553634092060000000, 4502.56399246206090000000, 4365.12809838690920000000, 5029.23064625004920000000, 4267.17938283334930000000, 4285.12810034316410000000, 4017.94861969706650000000, 4459.48707043850570000000, 4491.28194145589170000000, 4824.61526663816220000000, 4133.33323226016000000000, 4039.48708070884410000000, 4089.74348973632500000000, 4425.12809691971780000000, 0.00000000000000000000, 4.00000000000000000000, 4.00000000000000000000, 4.00000000000000000000, 4.00000000000000000000, 4.00000000000000000000, 4.00000000000000000000, 4.00000000000000000000, 4.00000000000000000000, 4.00000000000000000000, 4.00000000000000000000, 4.00000000000000000000, 4.00000000000000000000, 4.00000000000000000000, 4.00000000000000000000, 4.00000000000000000000, 4.00000000000000000000, 1669.00000000000000000000, 1686.00000000000000000000, 0.00000000000000000000
19.00000000000000000000, 0.00000000000000000000, 4282.05117734148100000000, 4494.35886445757390000000, 4368.20502138859140000000, 5024.10244124724430000000, 4277.43579283895720000000, 4286.15374134372450000000, 4022.05118369931010000000, 4469.74348044411360000000, 4501.53835146149960000000, 4835.89731764433150000000, 4142.05118076492730000000, 4050.25631121473270000000, 4101.53836124277500000000, 4431.28194292308220000000, 0.00000000000000000000, 4.00000000000000000000, 4.00000000000000000000, 4.00000000000000000000, 4.00000000000000000000, 4.00000000000000000000, 4.00000000000000000000, 4.00000000000000000000, 4.00000000000000000000, 4.00000000000000000000, 4.00000000000000000000, 4.00000000000000000000, 4.00000000000000000000, 4.00000000000000000000, 4.00000000000000000000, 4.00000000000000000000, 4.00000000000000000000, 1670.00000000000000000000, 1685.00000000000000000000, 0.00000000000000000000
20.00000000000000000000, 0.00000000000000000000, 4272.30758783615330000000, 4487.17937745364820000000, 4359.48707288382410000000, 5019.48705674472060000000, 4275.38451083783550000000, 4294.87168984849180000000, 4028.20502970267490000000, 4473.84604444635720000000, 4503.58963346262140000000, 4838.46142014573340000000, 4141.53836026464710000000, 4049.74349071445250000000, 4091.28195123716610000000, 4432.30758392364350000000, 0.00000000000000000000, 4.00000000000000000000, 4.00000000000000000000, 4.00000000000000000000, 4.00000000000000000000, 4.00000000000000000000, 4.00000000000000000000, 4.00000000000000000000, 4.00000000000000000000, 4.00000000000000000000, 4.00000000000000000000, 4.00000000000000000000, 4.00000000000000000000, 4.00000000000000000000, 4.00000000000000000000, 4.00000000000000000000, 4.00000000000000000000, 1669.00000000000000000000, 1685.00000000000000000000, 0.00000000000000000000
21.00000000000000000000, 0.00000000000000000000, 4264.61528033194740000000, 4495.38450545813430000000, 4354.87168838130040000000, 5018.46141574416010000000, 4267.17938283334930000000, 4296.41015134933330000000, 4030.25631170379670000000, 4466.66655744243140000000, 4499.48706946037780000000, 4834.35885614348990000000, 4136.41015526184310000000, 4039.99990120912430000000, 4090.25631023660530000000, 4427.17937892083960000000, 0.00000000000000000000, 4.00000000000000000000, 4.00000000000000000000, 4.00000000000000000000, 4.00000000000000000000, 4.00000000000000000000, 4.00000000000000000000, 4.00000000000000000000, 4.00000000000000000000, 4.00000000000000000000, 4.00000000000000000000, 4.00000000000000000000, 4.00000000000000000000, 4.00000000000000000000, 4.00000000000000000000, 4.00000000000000000000, 4.00000000000000000000, 1670.00000000000000000000, 1685.00000000000000000000, 0.00000000000000000000
22.00000000000000000000, 0.00000000000000000000, 4264.10245983166710000000, 4489.74347995505010000000, 4358.97425238354390000000, 5012.30756974079490000000, 4264.10245983166710000000, 4295.38451034877200000000, 4028.20502970267490000000, 4468.20501894327300000000, 4501.02553096121940000000, 4838.46142014573340000000, 4139.48707826352530000000, 4042.56400371052680000000, 4101.02554074249380000000, 4428.20501992140000000000, 0.00000000000000000000, 4.00000000000000000000, 4.00000000000000000000, 4.00000000000000000000, 4.00000000000000000000, 4.00000000000000000000, 4.00000000000000000000, 4.00000000000000000000, 4.00000000000000000000, 4.00000000000000000000, 4.00000000000000000000, 4.00000000000000000000, 4.00000000000000000000, 4.00000000000000000000, 4.00000000000000000000, 4.00000000000000000000, 4.00000000000000000000, 1670.00000000000000000000, 1685.00000000000000000000, 0.00000000000000000000
23.00000000000000000000, 0.00000000000000000000, 4267.69220333362950000000, 4476.41014694775910000000, 4357.43579088270230000000, 5011.28192874023440000000, 4267.17938283334930000000, 4297.43579234989370000000, 4023.58964520015120000000, 4476.41014694775910000000, 4504.61527446318270000000, 4840.51270214685520000000, 4139.48707826352530000000, 4046.66656771276980000000, 4100.51272024221360000000, 4428.71784042168020000000, 0.00000000000000000000, 4.00000000000000000000, 4.00000000000000000000, 4.00000000000000000000, 4.00000000000000000000, 4.00000000000000000000, 4.00000000000000000000, 4.00000000000000000000, 4.00000000000000000000, 4.00000000000000000000, 4.00000000000000000000, 4.00000000000000000000, 4.00000000000000000000, 4.00000000000000000000, 4.00000000000000000000, 4.00000000000000000000, 4.00000000000000000000, 1669.00000000000000000000, 1685.00000000000000000000, 0.00000000000000000000
24.00000000000000000000, 0.00000000000000000000, 4274.87169033755530000000, 4489.74347995505010000000, 4358.97425238354390000000, 5024.61526174752540000000, 4273.84604933699480000000, 4290.25630534596800000000, 4018.97426069762740000000, 4475.38450594719870000000, 4503.58963346262140000000, 4840.51270214685520000000, 4135.89733476156290000000, 4042.56400371052680000000, 4094.87169473912900000000, 4427.69219942111980000000, 0.00000000000000000000, 4.00000000000000000000, 4.00000000000000000000, 4.00000000000000000000, 4.00000000000000000000, 4.00000000000000000000, 4.00000000000000000000, 4.00000000000000000000, 4.00000000000000000000, 4.00000000000000000000, 4.00000000000000000000, 4.00000000000000000000, 4.00000000000000000000, 4.00000000000000000000, 4.00000000000000000000, 4.00000000000000000000, 4.00000000000000000000, 1669.00000000000000000000, 1685.00000000000000000000, 0.00000000000000000000
25.00000000000000000000, 0.00000000000000000000, 4275.38451083783550000000, 4495.89732595841540000000, 4361.02553438466570000000, 5024.10244124724430000000, 4272.30758783615330000000, 4279.99989534035920000000, 4017.94861969706650000000, 4469.74348044411360000000, 4497.94860795953720000000, 4837.43577914517300000000, 4138.46143726296490000000, 4037.94861920800300000000, 4090.25631023660530000000, 4426.66655842055840000000, 0.00000000000000000000, 4.00000000000000000000, 4.00000000000000000000, 4.00000000000000000000, 4.00000000000000000000, 4.00000000000000000000, 4.00000000000000000000, 4.00000000000000000000, 4.00000000000000000000, 4.00000000000000000000, 4.00000000000000000000, 4.00000000000000000000, 4.00000000000000000000, 4.00000000000000000000, 4.00000000000000000000, 4.00000000000000000000, 4.00000000000000000000, 1670.00000000000000000000, 1685.00000000000000000000, 0.00000000000000000000
26.00000000000000000000, 0.00000000000000000000, 4261.02553682998400000000, 4474.35886494663740000000, 4351.79476537961820000000, 5006.15372373742960000000, 4261.53835733026430000000, 4277.94861333923840000000, 4019.99990169818830000000, 4468.20501894327300000000, 4490.76912095561060000000, 4821.53834363648000000000, 4131.79477075931940000000, 4032.30759370491840000000, 4077.94861822987510000000, 4416.41014841495050000000, 0.00000000000000000000, 4.00000000000000000000, 4.00000000000000000000, 4.00000000000000000000, 4.00000000000000000000, 4.00000000000000000000, 4.00000000000000000000, 4.00000000000000000000, 4.00000000000000000000, 4.00000000000000000000, 4.00000000000000000000, 4.00000000000000000000, 4.00000000000000000000, 4.00000000000000000000, 4.00000000000000000000, 4.00000000000000000000, 4.00000000000000000000, 1669.00000000000000000000, 1686.00000000000000000000, 0.00000000000000000000
27.00000000000000000000, 0.00000000000000000000, 4250.25630632409500000000, 4467.69219844299190000000, 4344.10245787541130000000, 5005.64090323714940000000, 4259.99989582942360000000, 4282.56399784176210000000, 4019.99990169818830000000, 4462.56399344018790000000, 4488.71783895448970000000, 4810.76911313059100000000, 4119.48707875258880000000, 4022.56400419959030000000, 4070.25631072566920000000, 4405.64091790906150000000, 0.00000000000000000000, 4.00000000000000000000, 4.00000000000000000000, 4.00000000000000000000, 4.00000000000000000000, 4.00000000000000000000, 4.00000000000000000000, 4.00000000000000000000, 4.00000000000000000000, 4.00000000000000000000, 4.00000000000000000000, 4.00000000000000000000, 4.00000000000000000000, 4.00000000000000000000, 4.00000000000000000000, 4.00000000000000000000, 4.00000000000000000000, 1670.00000000000000000000, 1685.00000000000000000000, 0.00000000000000000000
28.00000000000000000000, 0.00000000000000000000, 4254.35887032633850000000, 4479.99989044972240000000, 4346.15373987653310000000, 5016.41013374303840000000, 4264.61528033194740000000, 4289.23066434540670000000, 4020.51272219846850000000, 4457.43578843738400000000, 4490.25630045533030000000, 4817.43577963423650000000, 4120.51271975315010000000, 4017.43579919678630000000, 4071.79477222651030000000, 4402.56399490737930000000, 0.00000000000000000000, 4.00000000000000000000, 4.00000000000000000000, 4.00000000000000000000, 4.00000000000000000000, 4.00000000000000000000, 4.00000000000000000000, 4.00000000000000000000, 4.00000000000000000000, 4.00000000000000000000, 4.00000000000000000000, 4.00000000000000000000, 4.00000000000000000000, 4.00000000000000000000, 4.00000000000000000000, 4.00000000000000000000, 4.00000000000000000000, 1669.00000000000000000000, 1685.00000000000000000000, 0.00000000000000000000
29.00000000000000000000, 0.00000000000000000000, 4259.48707532914250000000, 4478.46142894888090000000, 4347.69220137737470000000, 5009.23064673911270000000, 4264.10245983166710000000, 4293.84604884793040000000, 4021.53836319902940000000, 4459.48707043850570000000, 4489.74347995505010000000, 4818.97424113507800000000, 4123.58964275483230000000, 4019.48708119790760000000, 4067.69220822426720000000, 4399.48707190569710000000, 0.00000000000000000000, 4.00000000000000000000, 4.00000000000000000000, 4.00000000000000000000, 4.00000000000000000000, 4.00000000000000000000, 4.00000000000000000000, 4.00000000000000000000, 4.00000000000000000000, 4.00000000000000000000, 4.00000000000000000000, 4.00000000000000000000, 4.00000000000000000000, 4.00000000000000000000, 4.00000000000000000000, 4.00000000000000000000, 4.00000000000000000000, 1670.00000000000000000000, 1685.00000000000000000000, 0.00000000000000000000
30.00000000000000000000, 0.00000000000000000000, 4262.05117783054540000000, 4475.89732644747890000000, 4352.30758587989840000000, 5007.17936473799090000000, 4265.12810083222760000000, 4294.35886934821160000000, 4019.99990169818830000000, 4466.15373694215120000000, 4496.92296695897580000000, 4819.48706163535830000000, 4123.07682225455210000000, 4025.12810670099220000000, 4069.23066972510830000000, 4405.12809740878130000000, 0.00000000000000000000, 4.00000000000000000000, 4.00000000000000000000, 4.00000000000000000000, 4.00000000000000000000, 4.00000000000000000000, 4.00000000000000000000, 4.00000000000000000000, 4.00000000000000000000, 4.00000000000000000000, 4.00000000000000000000, 4.00000000000000000000, 4.00000000000000000000, 4.00000000000000000000, 4.00000000000000000000, 4.00000000000000000000, 4.00000000000000000000, 1669.00000000000000000000, 1685.00000000000000000000, 0.00000000000000000000
31.00000000000000000000, 0.00000000000000000000, 4271.79476733587310000000, 4491.79476195617190000000, 4359.99989338410430000000, 5022.56397974640370000000, 4270.76912633531170000000, 4291.79476684680960000000, 4017.94861969706650000000, 4470.76912144467500000000, 4504.10245396290160000000, 4832.30757414236900000000, 4133.33323226016000000000, 4033.33323470547930000000, 4085.12810523380130000000, 4424.61527641943760000000, 0.00000000000000000000, 4.00000000000000000000, 4.00000000000000000000, 4.00000000000000000000, 4.00000000000000000000, 4.00000000000000000000, 4.00000000000000000000, 4.00000000000000000000, 4.00000000000000000000, 4.00000000000000000000, 4.00000000000000000000, 4.00000000000000000000, 4.00000000000000000000, 4.00000000000000000000, 4.00000000000000000000, 4.00000000000000000000, 4.00000000000000000000, 1670.00000000000000000000, 1685.00000000000000000000, 0.00000000000000000000
32.00000000000000000000, 0.00000000000000000000, 4282.05117734148100000000, 4503.07681296234110000000, 4364.10245738634790000000, 5031.79474875145120000000, 4275.38451083783550000000, 4295.38451034877200000000, 4021.53836319902940000000, 4478.46142894888090000000, 4512.30758196738860000000, 4845.12808664937890000000, 4152.30759077053610000000, 4046.15374721248960000000, 4103.07682274361560000000, 4437.43578892644750000000, 0.00000000000000000000, 4.00000000000000000000, 4.00000000000000000000, 4.00000000000000000000, 4.00000000000000000000, 4.00000000000000000000, 4.00000000000000000000, 4.00000000000000000000, 4.00000000000000000000, 4.00000000000000000000, 4.00000000000000000000, 4.00000000000000000000, 4.00000000000000000000, 4.00000000000000000000, 4.00000000000000000000, 4.00000000000000000000, 4.00000000000000000000, 1669.00000000000000000000, 1685.00000000000000000000, 0.00000000000000000000
33.00000000000000000000, 0.00000000000000000000, 4276.92297233867700000000, 4494.35886445757390000000, 4366.66655988774980000000, 5022.56397974640370000000, 4277.43579283895720000000, 4305.64092035438080000000, 4032.30759370491840000000, 4486.66655695336790000000, 4521.02553047215590000000, 4848.71783015134220000000, 4156.41015477277960000000, 4053.84605471669560000000, 4112.30759174866310000000, 4435.89732742560680000000, 0.00000000000000000000, 4.00000000000000000000, 4.00000000000000000000, 4.00000000000000000000, 4.00000000000000000000, 4.00000000000000000000, 4.00000000000000000000, 4.00000000000000000000, 4.00000000000000000000, 4.00000000000000000000, 4.00000000000000000000, 4.00000000000000000000, 4.00000000000000000000, 4.00000000000000000000, 4.00000000000000000000, 4.00000000000000000000, 4.00000000000000000000, 1671.00000000000000000000, 1685.00000000000000000000, 0.00000000000000000000
34.00000000000000000000, 0.00000000000000000000, 4265.12810083222760000000, 4485.64091595280660000000, 4366.66655988774980000000, 5008.71782623883250000000, 4276.92297233867700000000, 4305.12809985409970000000, 4029.74349120351600000000, 4483.07681345140460000000, 4516.41014596963210000000, 4850.25629165218290000000, 4144.61528326632920000000, 4047.69220871333070000000, 4107.17938674585910000000, 4430.25630192252170000000, 0.00000000000000000000, 4.00000000000000000000, 4.00000000000000000000, 4.00000000000000000000, 4.00000000000000000000, 4.00000000000000000000, 4.00000000000000000000, 4.00000000000000000000, 4.00000000000000000000, 4.00000000000000000000, 4.00000000000000000000, 4.00000000000000000000, 4.00000000000000000000, 4.00000000000000000000, 4.00000000000000000000, 4.00000000000000000000, 4.00000000000000000000, 1671.00000000000000000000, 1682.00000000000000000000, 0.00000000000000000000
35.00000000000000000000, 0.00000000000000000000, 4264.10245983166710000000, 4487.69219795392840000000, 4360.51271388438540000000, 5013.84603124163640000000, 4273.84604933699480000000, 4294.35886934821160000000, 4011.79477369370170000000, 4470.76912144467500000000, 4504.10245396290160000000, 4845.64090714965910000000, 4136.92297576212330000000, 4038.46143970828330000000, 4096.92297674025120000000, 4423.07681491859600000000, 0.00000000000000000000, 4.00000000000000000000, 4.00000000000000000000, 4.00000000000000000000, 4.00000000000000000000, 4.00000000000000000000, 4.00000000000000000000, 4.00000000000000000000, 4.00000000000000000000, 4.00000000000000000000, 4.00000000000000000000, 4.00000000000000000000, 4.00000000000000000000, 4.00000000000000000000, 4.00000000000000000000, 4.00000000000000000000, 4.00000000000000000000, 1670.00000000000000000000, 1684.00000000000000000000, 0.00000000000000000000
36.00000000000000000000, 0.00000000000000000000, 4264.10245983166710000000, 4489.23065945476990000000, 4353.33322688045880000000, 5023.07680024668390000000, 4272.82040833643350000000, 4292.82040784737000000000, 4008.71785069201910000000, 4461.02553193934640000000, 4494.35886445757390000000, 4832.30757414236900000000, 4137.43579626240350000000, 4035.38451670660060000000, 4088.71784873576420000000, 4416.92296891523070000000, 0.00000000000000000000, 4.00000000000000000000, 4.00000000000000000000, 4.00000000000000000000, 4.00000000000000000000, 4.00000000000000000000, 4.00000000000000000000, 4.00000000000000000000, 4.00000000000000000000, 4.00000000000000000000, 4.00000000000000000000, 4.00000000000000000000, 4.00000000000000000000, 4.00000000000000000000, 4.00000000000000000000, 4.00000000000000000000, 4.00000000000000000000, 1671.00000000000000000000, 1683.00000000000000000000, 0.00000000000000000000
37.00000000000000000000, 0.00000000000000000000, 4262.05117783054540000000, 4488.20501845420860000000, 4354.35886788102020000000, 5018.46141574416010000000, 4275.38451083783550000000, 4297.43579234989370000000, 4021.02554269874920000000, 4457.94860893766420000000, 4489.23065945476990000000, 4827.69218963984530000000, 4137.94861676268370000000, 4035.38451670660060000000, 4090.25631023660530000000, 4415.38450741439010000000, 0.00000000000000000000, 4.00000000000000000000, 4.00000000000000000000, 4.00000000000000000000, 4.00000000000000000000, 4.00000000000000000000, 4.00000000000000000000, 4.00000000000000000000, 4.00000000000000000000, 4.00000000000000000000, 4.00000000000000000000, 4.00000000000000000000, 4.00000000000000000000, 4.00000000000000000000, 4.00000000000000000000, 4.00000000000000000000, 4.00000000000000000000, 1670.00000000000000000000, 1685.00000000000000000000, 0.00000000000000000000
38.00000000000000000000, 0.00000000000000000000, 4265.64092133250780000000, 4491.28194145589170000000, 4360.51271388438540000000, 5016.92295424331860000000, 4278.97425433979880000000, 4295.38451034877200000000, 4023.07682469987090000000, 4456.41014743682260000000, 4488.20501845420860000000, 4829.23065114068590000000, 4136.92297576212330000000, 4035.89733720688130000000, 4095.38451523940970000000, 4421.53835341775450000000, 0.00000000000000000000, 4.00000000000000000000, 4.00000000000000000000, 4.00000000000000000000, 4.00000000000000000000, 4.00000000000000000000, 4.00000000000000000000, 4.00000000000000000000, 4.00000000000000000000, 4.00000000000000000000, 4.00000000000000000000, 4.00000000000000000000, 4.00000000000000000000, 4.00000000000000000000, 4.00000000000000000000, 4.00000000000000000000, 4.00000000000000000000, 1671.00000000000000000000, 1684.00000000000000000000, 0.00000000000000000000
39.00000000000000000000, 0.00000000000000000000, 4264.10245983166710000000, 4488.71783895448970000000, 4356.92297038242210000000, 5021.53833874584230000000, 4274.35886983727510000000, 4292.82040784737000000000, 4019.48708119790760000000, 4458.46142943794440000000, 4490.76912095561060000000, 4829.23065114068590000000, 4131.79477075931940000000, 4035.38451670660060000000, 4092.82041273800720000000, 4423.58963541887620000000, 0.00000000000000000000, 4.00000000000000000000, 4.00000000000000000000, 4.00000000000000000000, 4.00000000000000000000, 4.00000000000000000000, 4.00000000000000000000, 4.00000000000000000000, 4.00000000000000000000, 4.00000000000000000000, 4.00000000000000000000, 4.00000000000000000000, 4.00000000000000000000, 4.00000000000000000000, 4.00000000000000000000, 4.00000000000000000000, 4.00000000000000000000, 1671.00000000000000000000, 1685.00000000000000000000, 0.00000000000000000000
40.00000000000000000000, 0.00000000000000000000, 4257.94861382830190000000, 4485.12809545252640000000, 4344.10245787541130000000, 5016.41013374303840000000, 4270.25630583503150000000, 4294.87168984849180000000, 4023.07682469987090000000, 4464.10245494102950000000, 4493.33322345701340000000, 4827.17936913956420000000, 4127.69220675707580000000, 4033.33323470547930000000, 4085.64092573408150000000, 4416.92296891523070000000, 0.00000000000000000000, 4.00000000000000000000, 4.00000000000000000000, 4.00000000000000000000, 4.00000000000000000000, 4.00000000000000000000, 4.00000000000000000000, 4.00000000000000000000, 4.00000000000000000000, 4.00000000000000000000, 4.00000000000000000000, 4.00000000000000000000, 4.00000000000000000000, 4.00000000000000000000, 4.00000000000000000000, 4.00000000000000000000, 4.00000000000000000000, 1671.00000000000000000000, 1684.00000000000000000000, 0.00000000000000000000
41.00000000000000000000, 0.00000000000000000000, 4258.46143432858210000000, 4491.28194145589170000000, 4343.07681687485090000000, 5012.82039024107510000000, 4275.38451083783550000000, 4297.43579234989370000000, 4027.17938870211400000000, 4471.28194194495520000000, 4499.99988996065800000000, 4827.69218963984530000000, 4135.89733476156290000000, 4032.82041420519860000000, 4089.23066923604440000000, 4419.99989191691380000000, 0.00000000000000000000, 4.00000000000000000000, 4.00000000000000000000, 4.00000000000000000000, 4.00000000000000000000, 4.00000000000000000000, 4.00000000000000000000, 4.00000000000000000000, 4.00000000000000000000, 4.00000000000000000000, 4.00000000000000000000, 4.00000000000000000000, 4.00000000000000000000, 4.00000000000000000000, 4.00000000000000000000, 4.00000000000000000000, 4.00000000000000000000, 1671.00000000000000000000, 1685.00000000000000000000, 0.00000000000000000000
42.00000000000000000000, 0.00000000000000000000, 4259.99989582942360000000, 4490.76912095561060000000, 4351.28194487933800000000, 5014.87167224219680000000, 4273.84604933699480000000, 4296.92297184961350000000, 4029.23067070323580000000, 4474.87168544691850000000, 4505.64091546374310000000, 4833.84603564320970000000, 4141.02553976436680000000, 4032.30759370491840000000, 4098.97425874137210000000, 4428.71784042168020000000, 0.00000000000000000000, 4.00000000000000000000, 4.00000000000000000000, 4.00000000000000000000, 4.00000000000000000000, 4.00000000000000000000, 4.00000000000000000000, 4.00000000000000000000, 4.00000000000000000000, 4.00000000000000000000, 4.00000000000000000000, 4.00000000000000000000, 4.00000000000000000000, 4.00000000000000000000, 4.00000000000000000000, 4.00000000000000000000, 4.00000000000000000000, 1671.00000000000000000000, 1684.00000000000000000000, 0.00000000000000000000
43.00000000000000000000, 0.00000000000000000000, 4264.10245983166710000000, 4487.17937745364820000000, 4353.84604738073990000000, 5012.82039024107510000000, 4270.25630583503150000000, 4296.41015134933330000000, 4030.25631170379670000000, 4474.87168544691850000000, 4507.69219746486490000000, 4843.07680464825720000000, 4134.87169376100160000000, 4035.89733720688130000000, 4106.15374574529870000000, 4428.20501992140000000000, 0.00000000000000000000, 4.00000000000000000000, 4.00000000000000000000, 4.00000000000000000000, 4.00000000000000000000, 4.00000000000000000000, 4.00000000000000000000, 4.00000000000000000000, 4.00000000000000000000, 4.00000000000000000000, 4.00000000000000000000, 4.00000000000000000000, 4.00000000000000000000, 4.00000000000000000000, 4.00000000000000000000, 4.00000000000000000000, 4.00000000000000000000, 1670.00000000000000000000, 1684.00000000000000000000, 0.00000000000000000000
44.00000000000000000000, 0.00000000000000000000, 4271.28194683559290000000, 4492.30758245645210000000, 4355.38450888158060000000, 5014.35885174191660000000, 4272.30758783615330000000, 4296.41015134933330000000, 4032.82041420519860000000, 4478.46142894888090000000, 4511.79476146710840000000, 4850.25629165218290000000, 4144.10246276604900000000, 4046.15374721248960000000, 4108.71784824670070000000, 4428.71784042168020000000, 0.00000000000000000000, 4.00000000000000000000, 4.00000000000000000000, 4.00000000000000000000, 4.00000000000000000000, 4.00000000000000000000, 4.00000000000000000000, 4.00000000000000000000, 4.00000000000000000000, 4.00000000000000000000, 4.00000000000000000000, 4.00000000000000000000, 4.00000000000000000000, 4.00000000000000000000, 4.00000000000000000000, 4.00000000000000000000, 4.00000000000000000000, 1671.00000000000000000000, 1685.00000000000000000000, 0.00000000000000000000
45.00000000000000000000, 0.00000000000000000000, 4270.25630583503150000000, 4487.69219795392840000000, 4363.07681638578740000000, 5017.94859524387990000000, 4268.20502383390980000000, 4296.41015134933330000000, 4032.82041420519860000000, 4481.02553145028290000000, 4510.25629996626690000000, 4846.66654815022050000000, 4154.35887277165780000000, 4048.20502921361140000000, 4104.10246374417690000000, 4432.30758392364350000000, 0.00000000000000000000, 4.00000000000000000000, 4.00000000000000000000, 4.00000000000000000000, 4.00000000000000000000, 4.00000000000000000000, 4.00000000000000000000, 4.00000000000000000000, 4.00000000000000000000, 4.00000000000000000000, 4.00000000000000000000, 4.00000000000000000000, 4.00000000000000000000, 4.00000000000000000000, 4.00000000000000000000, 4.00000000000000000000, 4.00000000000000000000, 1671.00000000000000000000, 1684.00000000000000000000, 0.00000000000000000000
46.00000000000000000000, 0.00000000000000000000, 4265.12810083222760000000, 4475.38450594719870000000, 4368.20502138859140000000, 5012.30756974079490000000, 4260.51271632970380000000, 4295.89733084905220000000, 4032.30759370491840000000, 4478.46142894888090000000, 4506.66655646430350000000, 4842.05116364769670000000, 4141.53836026464710000000, 4038.46143970828330000000, 4099.48707924165320000000, 4426.66655842055840000000, 0.00000000000000000000, 4.00000000000000000000, 4.00000000000000000000, 4.00000000000000000000, 4.00000000000000000000, 4.00000000000000000000, 4.00000000000000000000, 4.00000000000000000000, 4.00000000000000000000, 4.00000000000000000000, 4.00000000000000000000, 4.00000000000000000000, 4.00000000000000000000, 4.00000000000000000000, 4.00000000000000000000, 4.00000000000000000000, 4.00000000000000000000, 1670.00000000000000000000, 1685.00000000000000000000, 0.00000000000000000000
47.00000000000000000000, 0.00000000000000000000, 4265.64092133250780000000, 4473.33322394607690000000, 4363.58963688606760000000, 5009.23064673911270000000, 4261.02553682998400000000, 4293.33322834765020000000, 4034.35887570603970000000, 4473.84604444635720000000, 4506.66655646430350000000, 4841.53834314741650000000, 4132.82041175987980000000, 4036.92297820744220000000, 4098.46143824109190000000, 4421.02553291747430000000, 0.00000000000000000000, 4.00000000000000000000, 4.00000000000000000000, 4.00000000000000000000, 4.00000000000000000000, 4.00000000000000000000, 4.00000000000000000000, 4.00000000000000000000, 4.00000000000000000000, 4.00000000000000000000, 4.00000000000000000000, 4.00000000000000000000, 4.00000000000000000000, 4.00000000000000000000, 4.00000000000000000000, 4.00000000000000000000, 4.00000000000000000000, 1672.00000000000000000000, 1684.00000000000000000000, 0.00000000000000000000
48.00000000000000000000, 0.00000000000000000000, 4264.61528033194740000000, 4476.41014694775910000000, 4357.43579088270230000000, 5011.28192874023440000000, 4266.66656233306910000000, 4290.76912584624820000000, 4032.30759370491840000000, 4472.30758294551560000000, 4501.53835146149960000000, 4839.48706114629480000000, 4139.48707826352530000000, 4039.99990120912430000000, 4096.92297674025120000000, 4423.58963541887620000000, 0.00000000000000000000, 4.00000000000000000000, 4.00000000000000000000, 4.00000000000000000000, 4.00000000000000000000, 4.00000000000000000000, 4.00000000000000000000, 4.00000000000000000000, 4.00000000000000000000, 4.00000000000000000000, 4.00000000000000000000, 4.00000000000000000000, 4.00000000000000000000, 4.00000000000000000000, 4.00000000000000000000, 4.00000000000000000000, 4.00000000000000000000, 1670.00000000000000000000, 1685.00000000000000000000, 0.00000000000000000000
49.00000000000000000000, 0.00000000000000000000, 4265.12810083222760000000, 4482.05117245084420000000, 4357.94861138298260000000, 5013.84603124163640000000, 4269.23066483447110000000, 4291.79476684680960000000, 4026.15374770155310000000, 4469.74348044411360000000, 4492.82040295673230000000, 4831.79475364208790000000, 4137.94861676268370000000, 4035.89733720688130000000, 4098.46143824109190000000, 4424.61527641943760000000, 0.00000000000000000000, 4.00000000000000000000, 4.00000000000000000000, 4.00000000000000000000, 4.00000000000000000000, 4.00000000000000000000, 4.00000000000000000000, 4.00000000000000000000, 4.00000000000000000000, 4.00000000000000000000, 4.00000000000000000000, 4.00000000000000000000, 4.00000000000000000000, 4.00000000000000000000, 4.00000000000000000000, 4.00000000000000000000, 4.00000000000000000000, 1672.00000000000000000000, 1685.00000000000000000000, 0.00000000000000000000
50.00000000000000000000, 0.00000000000000000000, 4264.10245983166710000000, 4485.12809545252640000000, 4355.38450888158060000000, 5010.25628773967310000000, 4268.20502383390980000000, 4288.20502334484630000000, 4022.56400419959030000000, 4462.05117293990770000000, 4488.20501845420860000000, 4821.53834363648000000000, 4132.82041175987980000000, 4032.82041420519860000000, 4096.92297674025120000000, 4422.05117391803470000000, 0.00000000000000000000, 4.00000000000000000000, 4.00000000000000000000, 4.00000000000000000000, 4.00000000000000000000, 4.00000000000000000000, 4.00000000000000000000, 4.00000000000000000000, 4.00000000000000000000, 4.00000000000000000000, 4.00000000000000000000, 4.00000000000000000000, 4.00000000000000000000, 4.00000000000000000000, 4.00000000000000000000, 4.00000000000000000000, 4.00000000000000000000, 1671.00000000000000000000, 1684.00000000000000000000, 0.00000000000000000000
51.00000000000000000000, 0.00000000000000000000, 4252.82040882549790000000, 4475.89732644747890000000, 4345.12809887597270000000, 5001.02551873462560000000, 4263.07681883110580000000, 4287.17938234428580000000, 4024.61528620071200000000, 4463.07681394046810000000, 4491.79476195617190000000, 4818.46142063479780000000, 4131.28195025903910000000, 4030.25631170379670000000, 4087.69220773520330000000, 4416.41014841495050000000, 0.00000000000000000000, 4.00000000000000000000, 4.00000000000000000000, 4.00000000000000000000, 4.00000000000000000000, 4.00000000000000000000, 4.00000000000000000000, 4.00000000000000000000, 4.00000000000000000000, 4.00000000000000000000, 4.00000000000000000000, 4.00000000000000000000, 4.00000000000000000000, 4.00000000000000000000, 4.00000000000000000000, 4.00000000000000000000, 4.00000000000000000000, 1672.00000000000000000000, 1685.00000000000000000000, 0.00000000000000000000
52.00000000000000000000, 0.00000000000000000000, 4243.58963982045040000000, 4468.20501894327300000000, 4339.48707337288760000000, 4996.92295473238210000000, 4265.64092133250780000000, 4301.02553585185710000000, 4028.71785020295560000000, 4474.87168544691850000000, 4500.51271046093920000000, 4825.12808713844240000000, 4123.58964275483230000000, 4019.48708119790760000000, 4081.53836173183840000000, 4408.71784091074460000000, 0.00000000000000000000, 4.00000000000000000000, 4.00000000000000000000, 4.00000000000000000000, 4.00000000000000000000, 4.00000000000000000000, 4.00000000000000000000, 4.00000000000000000000, 4.00000000000000000000, 4.00000000000000000000, 4.00000000000000000000, 4.00000000000000000000, 4.00000000000000000000, 4.00000000000000000000, 4.00000000000000000000, 4.00000000000000000000, 4.00000000000000000000, 1671.00000000000000000000, 1686.00000000000000000000, 0.00000000000000000000
53.00000000000000000000, 0.00000000000000000000, 4246.66656282213260000000, 4473.84604444635720000000, 4339.99989387316870000000, 5001.53833923490580000000, 4272.30758783615330000000, 4308.20502285578280000000, 4030.76913220407690000000, 4479.48706994944220000000, 4507.69219746486490000000, 4835.89731764433150000000, 4123.58964275483230000000, 4017.94861969706650000000, 4083.58964373295980000000, 4406.66655890962280000000, 0.00000000000000000000, 4.00000000000000000000, 4.00000000000000000000, 4.00000000000000000000, 4.00000000000000000000, 4.00000000000000000000, 4.00000000000000000000, 4.00000000000000000000, 4.00000000000000000000, 4.00000000000000000000, 4.00000000000000000000, 4.00000000000000000000, 4.00000000000000000000, 4.00000000000000000000, 4.00000000000000000000, 4.00000000000000000000, 4.00000000000000000000, 1672.00000000000000000000, 1685.00000000000000000000, 0.00000000000000000000
54.00000000000000000000, 0.00000000000000000000, 4252.30758832521680000000, 4476.41014694775910000000, 4343.58963737513110000000, 5008.71782623883250000000, 4271.28194683559290000000, 4300.51271535157590000000, 4028.20502970267490000000, 4475.38450594719870000000, 4505.12809496346290000000, 4840.51270214685520000000, 4138.97425776324510000000, 4030.76913220407690000000, 4089.74348973632500000000, 4412.30758441270700000000, 0.00000000000000000000, 4.00000000000000000000, 4.00000000000000000000, 4.00000000000000000000, 4.00000000000000000000, 4.00000000000000000000, 4.00000000000000000000, 4.00000000000000000000, 4.00000000000000000000, 4.00000000000000000000, 4.00000000000000000000, 4.00000000000000000000, 4.00000000000000000000, 4.00000000000000000000, 4.00000000000000000000, 4.00000000000000000000, 4.00000000000000000000, 1672.00000000000000000000, 1684.00000000000000000000, 0.00000000000000000000
55.00000000000000000000, 0.00000000000000000000, 4252.30758832521680000000, 4478.97424944916110000000, 4344.10245787541130000000, 5009.74346723939290000000, 4269.23066483447110000000, 4300.51271535157590000000, 4028.20502970267490000000, 4474.35886494663740000000, 4495.38450545813430000000, 4834.35885614348990000000, 4140.51271926408660000000, 4030.76913220407690000000, 4093.84605373856810000000, 4414.87168691410900000000, 0.00000000000000000000, 4.00000000000000000000, 4.00000000000000000000, 4.00000000000000000000, 4.00000000000000000000, 4.00000000000000000000, 4.00000000000000000000, 4.00000000000000000000, 4.00000000000000000000, 4.00000000000000000000, 4.00000000000000000000, 4.00000000000000000000, 4.00000000000000000000, 4.00000000000000000000, 4.00000000000000000000, 4.00000000000000000000, 4.00000000000000000000, 1672.00000000000000000000, 1685.00000000000000000000, 0.00000000000000000000
56.00000000000000000000, 0.00000000000000000000, 4250.76912682437610000000, 4485.12809545252640000000, 4340.51271437344890000000, 5007.69218523827110000000, 4275.89733133811660000000, 4308.20502285578280000000, 4035.38451670660060000000, 4473.84604444635720000000, 4490.25630045533030000000, 4827.17936913956420000000, 4125.64092475595410000000, 4021.53836319902940000000, 4088.71784873576420000000, 4410.76912291186640000000, 0.00000000000000000000, 4.00000000000000000000, 4.00000000000000000000, 4.00000000000000000000, 4.00000000000000000000, 4.00000000000000000000, 4.00000000000000000000, 4.00000000000000000000, 4.00000000000000000000, 4.00000000000000000000, 4.00000000000000000000, 4.00000000000000000000, 4.00000000000000000000, 4.00000000000000000000, 4.00000000000000000000, 4.00000000000000000000, 4.00000000000000000000, 1672.00000000000000000000, 1684.00000000000000000000, 0.00000000000000000000
57.00000000000000000000, 0.00000000000000000000, 4254.87169082661880000000, 4483.58963395168480000000, 4342.56399637457070000000, 5009.23064673911270000000, 4281.02553634092060000000, 4307.69220235550260000000, 4038.97426020856350000000, 4471.28194194495520000000, 4495.38450545813430000000, 4832.30757414236900000000, 4127.69220675707580000000, 4025.64092720127290000000, 4088.20502823548350000000, 4409.74348191130500000000, 0.00000000000000000000, 4.00000000000000000000, 4.00000000000000000000, 4.00000000000000000000, 4.00000000000000000000, 4.00000000000000000000, 4.00000000000000000000, 4.00000000000000000000, 4.00000000000000000000, 4.00000000000000000000, 4.00000000000000000000, 4.00000000000000000000, 4.00000000000000000000, 4.00000000000000000000, 4.00000000000000000000, 4.00000000000000000000, 4.00000000000000000000, 1671.00000000000000000000, 1686.00000000000000000000, 0.00000000000000000000
58.00000000000000000000, 0.00000000000000000000, 4260.51271632970380000000, 4484.10245445196600000000, 4348.71784237793510000000, 5012.30756974079490000000, 4271.28194683559290000000, 4307.17938185522140000000, 4036.41015770716150000000, 4472.30758294551560000000, 4505.64091546374310000000, 4847.17936865050070000000, 4146.15374476717080000000, 4035.38451670660060000000, 4102.05118174305520000000, 4419.48707141663270000000, 0.00000000000000000000, 4.00000000000000000000, 4.00000000000000000000, 4.00000000000000000000, 4.00000000000000000000, 4.00000000000000000000, 4.00000000000000000000, 4.00000000000000000000, 4.00000000000000000000, 4.00000000000000000000, 4.00000000000000000000, 4.00000000000000000000, 4.00000000000000000000, 4.00000000000000000000, 4.00000000000000000000, 4.00000000000000000000, 4.00000000000000000000, 1673.00000000000000000000, 1685.00000000000000000000, 0.00000000000000000000
59.00000000000000000000, 0.00000000000000000000, 4263.58963933138600000000, 4491.79476195617190000000, 4352.30758587989840000000, 5016.41013374303840000000, 4265.64092133250780000000, 4310.76912535718470000000, 4036.92297820744220000000, 4477.43578794832050000000, 4509.23065896570640000000, 4851.28193265274420000000, 4149.23066776885300000000, 4039.99990120912430000000, 4110.25630974754130000000, 4429.23066092196130000000, 0.00000000000000000000, 4.00000000000000000000, 4.00000000000000000000, 4.00000000000000000000, 4.00000000000000000000, 4.00000000000000000000, 4.00000000000000000000, 4.00000000000000000000, 4.00000000000000000000, 4.00000000000000000000, 4.00000000000000000000, 4.00000000000000000000, 4.00000000000000000000, 4.00000000000000000000, 4.00000000000000000000, 4.00000000000000000000, 4.00000000000000000000, 1671.00000000000000000000, 1686.00000000000000000000, 0.00000000000000000000
60.00000000000000000000, 0.00000000000000000000, 4266.66656233306910000000, 4496.41014645869560000000, 4357.94861138298260000000, 5021.53833874584230000000, 4278.46143383951860000000, 4310.25630485690450000000, 4039.99990120912430000000, 4487.17937745364820000000, 4509.23065896570640000000, 4845.64090714965910000000, 4136.41015526184310000000, 4041.02554220968520000000, 4107.69220724613930000000, 4430.76912242280200000000, 0.00000000000000000000, 4.00000000000000000000, 4.00000000000000000000, 4.00000000000000000000, 4.00000000000000000000, 4.00000000000000000000, 4.00000000000000000000, 4.00000000000000000000, 4.00000000000000000000, 4.00000000000000000000, 4.00000000000000000000, 4.00000000000000000000, 4.00000000000000000000, 4.00000000000000000000, 4.00000000000000000000, 4.00000000000000000000, 4.00000000000000000000, 1672.00000000000000000000, 1685.00000000000000000000, 0.00000000000000000000
61.00000000000000000000, 0.00000000000000000000, 4271.79476733587310000000, 4495.38450545813430000000, 4362.05117538522610000000, 5023.07680024668390000000, 4286.66656184400470000000, 4308.20502285578280000000, 4039.48708070884410000000, 4487.69219795392840000000, 4507.69219746486490000000, 4842.05116364769670000000, 4136.92297576212330000000, 4041.53836270996590000000, 4099.99989974193340000000, 4427.17937892083960000000, 0.00000000000000000000, 4.00000000000000000000, 4.00000000000000000000, 4.00000000000000000000, 4.00000000000000000000, 4.00000000000000000000, 4.00000000000000000000, 4.00000000000000000000, 4.00000000000000000000, 4.00000000000000000000, 4.00000000000000000000, 4.00000000000000000000, 4.00000000000000000000, 4.00000000000000000000, 4.00000000000000000000, 4.00000000000000000000, 4.00000000000000000000, 1671.00000000000000000000, 1684.00000000000000000000, 0.00000000000000000000
62.00000000000000000000, 0.00000000000000000000, 4273.33322883671460000000, 4494.87168495785410000000, 4362.56399588550630000000, 5023.07680024668390000000, 4281.02553634092060000000, 4306.15374085466100000000, 4034.87169620632040000000, 4479.48706994944220000000, 4507.17937696458470000000, 4845.12808664937890000000, 4148.71784726857280000000, 4044.61528571164810000000, 4103.07682274361560000000, 4431.28194292308220000000, 0.00000000000000000000, 4.00000000000000000000, 4.00000000000000000000, 4.00000000000000000000, 4.00000000000000000000, 4.00000000000000000000, 4.00000000000000000000, 4.00000000000000000000, 4.00000000000000000000, 4.00000000000000000000, 4.00000000000000000000, 4.00000000000000000000, 4.00000000000000000000, 4.00000000000000000000, 4.00000000000000000000, 4.00000000000000000000, 4.00000000000000000000, 1672.00000000000000000000, 1686.00000000000000000000, 0.00000000000000000000
63.00000000000000000000, 0.00000000000000000000, 4269.74348533475130000000, 4495.38450545813430000000, 4358.97425238354390000000, 5019.99987724500170000000, 4277.94861333923840000000, 4303.07681785297880000000, 4032.30759370491840000000, 4478.46142894888090000000, 4509.23065896570640000000, 4843.07680464825720000000, 4144.61528326632920000000, 4043.07682421080700000000, 4106.66656624557890000000, 4431.28194292308220000000, 0.00000000000000000000, 4.00000000000000000000, 4.00000000000000000000, 4.00000000000000000000, 4.00000000000000000000, 4.00000000000000000000, 4.00000000000000000000, 4.00000000000000000000, 4.00000000000000000000, 4.00000000000000000000, 4.00000000000000000000, 4.00000000000000000000, 4.00000000000000000000, 4.00000000000000000000, 4.00000000000000000000, 4.00000000000000000000, 4.00000000000000000000, 1671.00000000000000000000, 1685.00000000000000000000, 0.00000000000000000000
64.00000000000000000000, 0.00000000000000000000, 4260.51271632970380000000, 4488.20501845420860000000, 4346.66656037681420000000, 5009.74346723939290000000, 4277.43579283895720000000, 4299.48707435101550000000, 4028.71785020295560000000, 4474.35886494663740000000, 4502.56399246206090000000, 4832.82039464264930000000, 4127.17938625679560000000, 4030.76913220407690000000, 4095.38451523940970000000, 4421.02553291747430000000, 473.00000000000000000000, 4.00000000000000000000, 4.00000000000000000000, 4.00000000000000000000, 4.00000000000000000000, 4.00000000000000000000, 4.00000000000000000000, 4.00000000000000000000, 4.00000000000000000000, 4.00000000000000000000, 4.00000000000000000000, 4.00000000000000000000, 4.00000000000000000000, 4.00000000000000000000, 4.00000000000000000000, 4.00000000000000000000, 4.00000000000000000000, 1672.00000000000000000000, 1685.00000000000000000000, 0.00000000000000000000
65.00000000000000000000, 0.00000000000000000000, 4256.92297282774050000000, 4478.46142894888090000000, 4339.48707337288760000000, 5005.64090323714940000000, 4274.35886983727510000000, 4298.46143335045510000000, 4028.71785020295560000000, 4463.07681394046810000000, 4490.76912095561060000000, 4826.66654863928400000000, 4125.12810425567390000000, 4025.12810670099220000000, 4086.15374623436220000000, 4415.89732791467030000000, 471.00000000000000000000, 4.00000000000000000000, 4.00000000000000000000, 4.00000000000000000000, 4.00000000000000000000, 4.00000000000000000000, 4.00000000000000000000, 4.00000000000000000000, 4.00000000000000000000, 4.00000000000000000000, 4.00000000000000000000, 4.00000000000000000000, 4.00000000000000000000, 4.00000000000000000000, 4.00000000000000000000, 4.00000000000000000000, 4.00000000000000000000, 1670.00000000000000000000, 1684.00000000000000000000, 0.00000000000000000000
66.00000000000000000000, 0.00000000000000000000, 4262.05117783054540000000, 4476.92296744803930000000, 4346.15373987653310000000, 5010.76910823995330000000, 4271.28194683559290000000, 4303.07681785297880000000, 4038.46143970828330000000, 4464.10245494102950000000, 4487.17937745364820000000, 4825.12808713844240000000, 4137.43579626240350000000, 4027.69220920239470000000, 4089.23066923604440000000, 4421.53835341775450000000, 493.00000000000000000000, 4.00000000000000000000, 4.00000000000000000000, 4.00000000000000000000, 4.00000000000000000000, 4.00000000000000000000, 4.00000000000000000000, 4.00000000000000000000, 4.00000000000000000000, 4.00000000000000000000, 4.00000000000000000000, 4.00000000000000000000, 4.00000000000000000000, 4.00000000000000000000, 4.00000000000000000000, 4.00000000000000000000, 4.00000000000000000000, 1670.00000000000000000000, 1685.00000000000000000000, 0.00000000000000000000
67.00000000000000000000, 0.00000000000000000000, 4263.58963933138600000000, 4476.92296744803930000000, 4349.23066287821620000000, 5009.23064673911270000000, 4267.69220333362950000000, 4312.82040735830650000000, 4045.64092671220900000000, 4476.92296744803930000000, 4496.92296695897580000000, 4830.76911264152750000000, 4136.41015526184310000000, 4030.25631170379670000000, 4092.30759223772700000000, 4426.15373792027820000000, 470.00000000000000000000, 4.00000000000000000000, 4.00000000000000000000, 4.00000000000000000000, 4.00000000000000000000, 4.00000000000000000000, 4.00000000000000000000, 4.00000000000000000000, 4.00000000000000000000, 4.00000000000000000000, 4.00000000000000000000, 4.00000000000000000000, 4.00000000000000000000, 4.00000000000000000000, 4.00000000000000000000, 4.00000000000000000000, 4.00000000000000000000, 1670.00000000000000000000, 1684.00000000000000000000, 0.00000000000000000000
68.00000000000000000000, 0.00000000000000000000, 4267.17938283334930000000, 4477.43578794832050000000, 4354.87168838130040000000, 5009.23064673911270000000, 4270.76912633531170000000, 4313.33322785858670000000, 4039.48708070884410000000, 4481.02553145028290000000, 4507.17937696458470000000, 4842.56398414797700000000, 4137.43579626240350000000, 4036.92297820744220000000, 4097.94861774081160000000, 4428.20501992140000000000, 479.00000000000000000000, 4.00000000000000000000, 4.00000000000000000000, 4.00000000000000000000, 4.00000000000000000000, 4.00000000000000000000, 4.00000000000000000000, 4.00000000000000000000, 4.00000000000000000000, 4.00000000000000000000, 4.00000000000000000000, 4.00000000000000000000, 4.00000000000000000000, 4.00000000000000000000, 4.00000000000000000000, 4.00000000000000000000, 4.00000000000000000000, 1668.00000000000000000000, 1687.00000000000000000000, 0.00000000000000000000
69.00000000000000000000, 0.00000000000000000000, 4275.89733133811660000000, 4482.05117245084420000000, 4363.07681638578740000000, 5014.87167224219680000000, 4276.92297233867700000000, 4301.53835635213730000000, 4034.35887570603970000000, 4478.97424944916110000000, 4510.25629996626690000000, 4849.23065065162250000000, 4151.28194976997470000000, 4044.10246521136790000000, 4107.69220724613930000000, 4435.89732742560680000000, 477.00000000000000000000, 4.00000000000000000000, 4.00000000000000000000, 4.00000000000000000000, 4.00000000000000000000, 4.00000000000000000000, 4.00000000000000000000, 4.00000000000000000000, 4.00000000000000000000, 4.00000000000000000000, 4.00000000000000000000, 4.00000000000000000000, 4.00000000000000000000, 4.00000000000000000000, 4.00000000000000000000, 4.00000000000000000000, 4.00000000000000000000, 1670.00000000000000000000, 1687.00000000000000000000, 0.00000000000000000000
70.00000000000000000000, 0.00000000000000000000, 4277.94861333923840000000, 4485.12809545252640000000, 4364.10245738634790000000, 5013.33321074135620000000, 4278.46143383951860000000, 4299.99989485129570000000, 4036.41015770716150000000, 4479.48706994944220000000, 4512.30758196738860000000, 4853.33321465386600000000, 4149.74348826913410000000, 4051.79477271557430000000, 4111.28195074810260000000, 4444.61527593037320000000, 490.00000000000000000000, 4.00000000000000000000, 4.00000000000000000000, 4.00000000000000000000, 4.00000000000000000000, 4.00000000000000000000, 4.00000000000000000000, 4.00000000000000000000, 4.00000000000000000000, 4.00000000000000000000, 4.00000000000000000000, 4.00000000000000000000, 4.00000000000000000000, 4.00000000000000000000, 4.00000000000000000000, 4.00000000000000000000, 4.00000000000000000000, 1668.00000000000000000000, 1688.00000000000000000000, 0.00000000000000000000
71.00000000000000000000, 0.00000000000000000000, 4275.89733133811660000000, 4486.15373645308680000000, 4362.56399588550630000000, 5012.82039024107510000000, 4277.94861333923840000000, 4303.58963835325900000000, 4030.76913220407690000000, 4477.94860844860070000000, 4510.25629996626690000000, 4855.89731715526800000000, 4138.46143726296490000000, 4057.94861871893910000000, 4106.66656624557890000000, 4446.66655793149490000000, 446.00000000000000000000, 4.00000000000000000000, 4.00000000000000000000, 4.00000000000000000000, 4.00000000000000000000, 4.00000000000000000000, 4.00000000000000000000, 4.00000000000000000000, 4.00000000000000000000, 4.00000000000000000000, 4.00000000000000000000, 4.00000000000000000000, 4.00000000000000000000, 4.00000000000000000000, 4.00000000000000000000, 4.00000000000000000000, 4.00000000000000000000, 1670.00000000000000000000, 1688.00000000000000000000, 0.00000000000000000000
72.00000000000000000000, 0.00000000000000000000, 4272.30758783615330000000, 4486.15373645308680000000, 4362.05117538522610000000, 5014.87167224219680000000, 4279.48707484007900000000, 4296.92297184961350000000, 4024.10246570043140000000, 4474.87168544691850000000, 4499.99988996065800000000, 4842.05116364769670000000, 4138.97425776324510000000, 4050.25631121473270000000, 4094.35887423884880000000, 4438.97425042728900000000, 429.00000000000000000000, 4.00000000000000000000, 4.00000000000000000000, 4.00000000000000000000, 4.00000000000000000000, 4.00000000000000000000, 4.00000000000000000000, 4.00000000000000000000, 4.00000000000000000000, 4.00000000000000000000, 4.00000000000000000000, 4.00000000000000000000, 4.00000000000000000000, 4.00000000000000000000, 4.00000000000000000000, 4.00000000000000000000, 4.00000000000000000000, 1669.00000000000000000000, 1687.00000000000000000000, 0.00000000000000000000
73.00000000000000000000, 0.00000000000000000000, 4265.64092133250780000000, 4475.38450594719870000000, 4358.46143188326370000000, 5011.79474924051460000000, 4276.92297233867700000000, 4292.82040784737000000000, 4029.23067070323580000000, 4470.25630094439480000000, 4484.10245445196600000000, 4817.43577963423650000000, 4135.38451426128180000000, 4034.35887570603970000000, 4079.48707973071670000000, 4422.05117391803470000000, 429.00000000000000000000, 4.00000000000000000000, 4.00000000000000000000, 4.00000000000000000000, 4.00000000000000000000, 4.00000000000000000000, 4.00000000000000000000, 4.00000000000000000000, 4.00000000000000000000, 4.00000000000000000000, 4.00000000000000000000, 4.00000000000000000000, 4.00000000000000000000, 4.00000000000000000000, 4.00000000000000000000, 4.00000000000000000000, 4.00000000000000000000, 1670.00000000000000000000, 1689.00000000000000000000, 0.00000000000000000000
74.00000000000000000000, 0.00000000000000000000, 4254.35887032633850000000, 4465.12809594158990000000, 4350.76912437905680000000, 5004.61526223658890000000, 4271.28194683559290000000, 4297.43579234989370000000, 4035.38451670660060000000, 4462.56399344018790000000, 4478.46142894888090000000, 4811.28193363087120000000, 4122.05118125399170000000, 4025.64092720127290000000, 4076.41015672903400000000, 4408.20502041046350000000, 463.00000000000000000000, 4.00000000000000000000, 4.00000000000000000000, 4.00000000000000000000, 4.00000000000000000000, 4.00000000000000000000, 4.00000000000000000000, 4.00000000000000000000, 4.00000000000000000000, 4.00000000000000000000, 4.00000000000000000000, 4.00000000000000000000, 4.00000000000000000000, 4.00000000000000000000, 4.00000000000000000000, 4.00000000000000000000, 4.00000000000000000000, 1670.00000000000000000000, 1689.00000000000000000000, 0.00000000000000000000
75.00000000000000000000, 0.00000000000000000000, 4245.12810132129110000000, 4467.69219844299190000000, 4343.58963737513110000000, 4997.94859573294340000000, 4266.15374183278800000000, 4297.43579234989370000000, 4033.33323470547930000000, 4459.48707043850570000000, 4481.02553145028290000000, 4811.79475413115230000000, 4115.89733525062640000000, 4017.94861969706650000000, 4073.33323372735140000000, 4399.99989240597730000000, 441.00000000000000000000, 4.00000000000000000000, 4.00000000000000000000, 4.00000000000000000000, 4.00000000000000000000, 4.00000000000000000000, 4.00000000000000000000, 4.00000000000000000000, 4.00000000000000000000, 4.00000000000000000000, 4.00000000000000000000, 4.00000000000000000000, 4.00000000000000000000, 4.00000000000000000000, 4.00000000000000000000, 4.00000000000000000000, 4.00000000000000000000, 1669.00000000000000000000, 1689.00000000000000000000, 0.00000000000000000000
76.00000000000000000000, 0.00000000000000000000, 4245.12810132129110000000, 4463.58963444074930000000, 4339.99989387316870000000, 4996.41013423210190000000, 4263.58963933138600000000, 4292.82040784737000000000, 4029.74349120351600000000, 4461.53835243962750000000, 4482.56399295112440000000, 4811.79475413115230000000, 4120.51271975315010000000, 4012.82041469426260000000, 4065.64092622314550000000, 4396.92296940429420000000, 418.00000000000000000000, 4.00000000000000000000, 4.00000000000000000000, 4.00000000000000000000, 4.00000000000000000000, 4.00000000000000000000, 4.00000000000000000000, 4.00000000000000000000, 4.00000000000000000000, 4.00000000000000000000, 4.00000000000000000000, 4.00000000000000000000, 4.00000000000000000000, 4.00000000000000000000, 4.00000000000000000000, 4.00000000000000000000, 4.00000000000000000000, 1670.00000000000000000000, 1688.00000000000000000000, 0.00000000000000000000
77.00000000000000000000, 0.00000000000000000000, 4246.66656282213260000000, 4458.97424993822550000000, 4339.48707337288760000000, 4995.89731373182170000000, 4268.20502383390980000000, 4294.87168984849180000000, 4028.20502970267490000000, 4465.12809594158990000000, 4485.64091595280660000000, 4820.51270263591870000000, 4124.61528375539360000000, 4016.41015819622540000000, 4069.23066972510830000000, 4396.41014890401400000000, 451.00000000000000000000, 4.00000000000000000000, 4.00000000000000000000, 4.00000000000000000000, 4.00000000000000000000, 4.00000000000000000000, 4.00000000000000000000, 4.00000000000000000000, 4.00000000000000000000, 4.00000000000000000000, 4.00000000000000000000, 4.00000000000000000000, 4.00000000000000000000, 4.00000000000000000000, 4.00000000000000000000, 4.00000000000000000000, 4.00000000000000000000, 1670.00000000000000000000, 1688.00000000000000000000, 0.00000000000000000000
78.00000000000000000000, 0.00000000000000000000, 4246.66656282213260000000, 4472.82040344579670000000, 4342.56399637457070000000, 5002.05115973518700000000, 4271.79476733587310000000, 4295.89733084905220000000, 4027.69220920239470000000, 4463.58963444074930000000, 4489.74347995505010000000, 4824.61526663816220000000, 4121.02554025343030000000, 4015.38451719566460000000, 4073.33323372735140000000, 4396.92296940429420000000, 463.00000000000000000000, 4.00000000000000000000, 4.00000000000000000000, 4.00000000000000000000, 4.00000000000000000000, 4.00000000000000000000, 4.00000000000000000000, 4.00000000000000000000, 4.00000000000000000000, 4.00000000000000000000, 4.00000000000000000000, 4.00000000000000000000, 4.00000000000000000000, 4.00000000000000000000, 4.00000000000000000000, 4.00000000000000000000, 4.00000000000000000000, 1670.00000000000000000000, 1686.00000000000000000000, 0.00000000000000000000
79.00000000000000000000, 0.00000000000000000000, 4253.33322932577810000000, 4482.05117245084420000000, 4347.69220137737470000000, 5006.66654423771070000000, 4266.66656233306910000000, 4292.82040784737000000000, 4030.25631170379670000000, 4461.02553193934640000000, 4489.23065945476990000000, 4816.41013863367610000000, 4114.35887374978480000000, 4011.79477369370170000000, 4064.61528522258460000000, 4396.92296940429420000000, 441.00000000000000000000, 4.00000000000000000000, 4.00000000000000000000, 4.00000000000000000000, 4.00000000000000000000, 4.00000000000000000000, 4.00000000000000000000, 4.00000000000000000000, 4.00000000000000000000, 4.00000000000000000000, 4.00000000000000000000, 4.00000000000000000000, 4.00000000000000000000, 4.00000000000000000000, 4.00000000000000000000, 4.00000000000000000000, 4.00000000000000000000, 1670.00000000000000000000, 1685.00000000000000000000, 0.00000000000000000000
80.00000000000000000000, 0.00000000000000000000, 4264.61528033194740000000, 4474.35886494663740000000, 4353.33322688045880000000, 5004.61526223658890000000, 4266.66656233306910000000, 4296.41015134933330000000, 4034.35887570603970000000, 4459.99989093878590000000, 4478.46142894888090000000, 4804.61526712722570000000, 4115.38451475034620000000, 4015.38451719566460000000, 4058.97425971950000000000, 4397.94861040485560000000, 418.00000000000000000000, 4.00000000000000000000, 4.00000000000000000000, 4.00000000000000000000, 4.00000000000000000000, 4.00000000000000000000, 4.00000000000000000000, 4.00000000000000000000, 4.00000000000000000000, 4.00000000000000000000, 4.00000000000000000000, 4.00000000000000000000, 4.00000000000000000000, 4.00000000000000000000, 4.00000000000000000000, 4.00000000000000000000, 4.00000000000000000000, 1671.00000000000000000000, 1684.00000000000000000000, 0.00000000000000000000
81.00000000000000000000, 0.00000000000000000000, 4269.74348533475130000000, 4477.43578794832050000000, 4357.94861138298260000000, 5013.33321074135620000000, 4274.35886983727510000000, 4305.64092035438080000000, 4037.94861920800300000000, 4458.46142943794440000000, 4470.25630094439480000000, 4796.41013912273960000000, 4118.97425825230860000000, 4018.46144019734720000000, 4066.66656722370640000000, 4402.05117440709910000000, 451.00000000000000000000, 4.00000000000000000000, 4.00000000000000000000, 4.00000000000000000000, 4.00000000000000000000, 4.00000000000000000000, 4.00000000000000000000, 4.00000000000000000000, 4.00000000000000000000, 4.00000000000000000000, 4.00000000000000000000, 4.00000000000000000000, 4.00000000000000000000, 4.00000000000000000000, 4.00000000000000000000, 4.00000000000000000000, 4.00000000000000000000, 1671.00000000000000000000, 1685.00000000000000000000, 0.00000000000000000000
82.00000000000000000000, 0.00000000000000000000, 4269.23066483447110000000, 4490.25630045533030000000, 4360.51271388438540000000, 5022.05115924612260000000, 4272.30758783615330000000, 4302.56399735269770000000, 4032.82041420519860000000, 4458.46142943794440000000, 4472.30758294551560000000, 4796.92295962301980000000, 4117.43579675146700000000, 4016.92297869650570000000, 4071.79477222651030000000, 4408.20502041046350000000, 463.00000000000000000000, 4.00000000000000000000, 4.00000000000000000000, 4.00000000000000000000, 4.00000000000000000000, 4.00000000000000000000, 4.00000000000000000000, 4.00000000000000000000, 4.00000000000000000000, 4.00000000000000000000, 4.00000000000000000000, 4.00000000000000000000, 4.00000000000000000000, 4.00000000000000000000, 4.00000000000000000000, 4.00000000000000000000, 4.00000000000000000000, 1671.00000000000000000000, 1684.00000000000000000000, 0.00000000000000000000
83.00000000000000000000, 0.00000000000000000000, 4267.17938283334930000000, 4486.66655695336790000000, 4359.99989338410430000000, 5012.30756974079490000000, 4266.66656233306910000000, 4293.33322834765020000000, 4022.56400419959030000000, 4465.64091644187010000000, 4479.99989044972240000000, 4807.69219012890880000000, 4123.07682225455210000000, 4022.56400419959030000000, 4070.76913122594940000000, 4411.79476391242680000000, 441.00000000000000000000, 4.00000000000000000000, 4.00000000000000000000, 4.00000000000000000000, 4.00000000000000000000, 4.00000000000000000000, 4.00000000000000000000, 4.00000000000000000000, 4.00000000000000000000, 4.00000000000000000000, 4.00000000000000000000, 4.00000000000000000000, 4.00000000000000000000, 4.00000000000000000000, 4.00000000000000000000, 4.00000000000000000000, 4.00000000000000000000, 1672.00000000000000000000, 1685.00000000000000000000, 0.00000000000000000000
84.00000000000000000000, 0.00000000000000000000, 4266.66656233306910000000, 4475.38450594719870000000, 4359.99989338410430000000, 5003.58962123602760000000, 4270.25630583503150000000, 4296.41015134933330000000, 4024.61528620071200000000, 4472.30758294551560000000, 4486.15373645308680000000, 4814.87167713283450000000, 4133.84605276044110000000, 4035.38451670660060000000, 4075.89733622875380000000, 4413.33322541326830000000, 418.00000000000000000000, 4.00000000000000000000, 4.00000000000000000000, 4.00000000000000000000, 4.00000000000000000000, 4.00000000000000000000, 4.00000000000000000000, 4.00000000000000000000, 4.00000000000000000000, 4.00000000000000000000, 4.00000000000000000000, 4.00000000000000000000, 4.00000000000000000000, 4.00000000000000000000, 4.00000000000000000000, 4.00000000000000000000, 4.00000000000000000000, 1671.00000000000000000000, 1684.00000000000000000000, 0.00000000000000000000
85.00000000000000000000, 0.00000000000000000000, 4268.71784433419090000000, 4479.48706994944220000000, 4365.64091888718940000000, 5015.38449274247710000000, 4269.74348533475130000000, 4303.58963835325900000000, 4037.43579870772240000000, 4474.87168544691850000000, 4490.25630045533030000000, 4819.48706163535830000000, 4137.94861676268370000000, 4040.51272170940500000000, 4083.07682323267950000000, 4419.99989191691380000000, 451.00000000000000000000, 4.00000000000000000000, 4.00000000000000000000, 4.00000000000000000000, 4.00000000000000000000, 4.00000000000000000000, 4.00000000000000000000, 4.00000000000000000000, 4.00000000000000000000, 4.00000000000000000000, 4.00000000000000000000, 4.00000000000000000000, 4.00000000000000000000, 4.00000000000000000000, 4.00000000000000000000, 4.00000000000000000000, 4.00000000000000000000, 1671.00000000000000000000, 1685.00000000000000000000, 0.00000000000000000000
86.00000000000000000000, 0.00000000000000000000, 4267.69220333362950000000, 4487.17937745364820000000, 4365.64091888718940000000, 5016.92295424331860000000, 4263.58963933138600000000, 4301.53835635213730000000, 4041.53836270996590000000, 4478.97424944916110000000, 4497.94860795953720000000, 4828.20501014012550000000, 4136.92297576212330000000, 4038.46143970828330000000, 4088.20502823548350000000, 4425.12809691971780000000, 463.00000000000000000000, 4.00000000000000000000, 4.00000000000000000000, 4.00000000000000000000, 4.00000000000000000000, 4.00000000000000000000, 4.00000000000000000000, 4.00000000000000000000, 4.00000000000000000000, 4.00000000000000000000, 4.00000000000000000000, 4.00000000000000000000, 4.00000000000000000000, 4.00000000000000000000, 4.00000000000000000000, 4.00000000000000000000, 4.00000000000000000000, 1671.00000000000000000000, 1684.00000000000000000000, 0.00000000000000000000
87.00000000000000000000, 0.00000000000000000000, 4265.64092133250780000000, 4481.53835195056310000000, 4361.02553438466570000000, 5006.15372373742960000000, 4262.56399833082560000000, 4294.35886934821160000000, 4033.33323470547930000000, 4479.48706994944220000000, 4505.12809496346290000000, 4831.79475364208790000000, 4136.92297576212330000000, 4037.43579870772240000000, 4091.79477173744680000000, 4421.02553291747430000000, 441.00000000000000000000, 4.00000000000000000000, 4.00000000000000000000, 4.00000000000000000000, 4.00000000000000000000, 4.00000000000000000000, 4.00000000000000000000, 4.00000000000000000000, 4.00000000000000000000, 4.00000000000000000000, 4.00000000000000000000, 4.00000000000000000000, 4.00000000000000000000, 4.00000000000000000000, 4.00000000000000000000, 4.00000000000000000000, 4.00000000000000000000, 1669.00000000000000000000, 1686.00000000000000000000, 0.00000000000000000000
88.00000000000000000000, 0.00000000000000000000, 4265.64092133250780000000, 4473.33322394607690000000, 4363.58963688606760000000, 5005.12808273686910000000, 4265.12810083222760000000, 4294.87168984849180000000, 4037.94861920800300000000, 4476.92296744803930000000, 4504.61527446318270000000, 4830.76911264152750000000, 4140.51271926408660000000, 4036.92297820744220000000, 4089.23066923604440000000, 4417.43578941551100000000, 418.00000000000000000000, 4.00000000000000000000, 4.00000000000000000000, 4.00000000000000000000, 4.00000000000000000000, 4.00000000000000000000, 4.00000000000000000000, 4.00000000000000000000, 4.00000000000000000000, 4.00000000000000000000, 4.00000000000000000000, 4.00000000000000000000, 4.00000000000000000000, 4.00000000000000000000, 4.00000000000000000000, 4.00000000000000000000, 4.00000000000000000000, 1671.00000000000000000000, 1684.00000000000000000000, 0.00000000000000000000
89.00000000000000000000, 0.00000000000000000000, 4259.48707532914250000000, 4468.71783944355320000000, 4361.02553438466570000000, 5004.10244173630870000000, 4266.15374183278800000000, 4301.02553585185710000000, 4048.71784971389160000000, 4477.94860844860070000000, 4497.94860795953720000000, 4826.15372813900380000000, 4133.84605276044110000000, 4033.84605520575950000000, 4081.02554123155780000000, 4415.89732791467030000000, 451.00000000000000000000, 4.00000000000000000000, 4.00000000000000000000, 4.00000000000000000000, 4.00000000000000000000, 4.00000000000000000000, 4.00000000000000000000, 4.00000000000000000000, 4.00000000000000000000, 4.00000000000000000000, 4.00000000000000000000, 4.00000000000000000000, 4.00000000000000000000, 4.00000000000000000000, 4.00000000000000000000, 4.00000000000000000000, 4.00000000000000000000, 1669.00000000000000000000, 1685.00000000000000000000, 0.00000000000000000000
90.00000000000000000000, 0.00000000000000000000, 4249.23066532353460000000, 4464.61527544130970000000, 4350.76912437905680000000, 4999.99987773406520000000, 4264.10245983166710000000, 4297.43579234989370000000, 4041.53836270996590000000, 4473.33322394607690000000, 4486.15373645308680000000, 4812.82039513171280000000, 4122.05118125399170000000, 4026.15374770155310000000, 4070.25631072566920000000, 4408.20502041046350000000, 463.00000000000000000000, 4.00000000000000000000, 4.00000000000000000000, 4.00000000000000000000, 4.00000000000000000000, 4.00000000000000000000, 4.00000000000000000000, 4.00000000000000000000, 4.00000000000000000000, 4.00000000000000000000, 4.00000000000000000000, 4.00000000000000000000, 4.00000000000000000000, 4.00000000000000000000, 4.00000000000000000000, 4.00000000000000000000, 4.00000000000000000000, 1670.00000000000000000000, 1686.00000000000000000000, 0.00000000000000000000
91.00000000000000000000, 0.00000000000000000000, 4245.12810132129110000000, 4458.46142943794440000000, 4344.10245787541130000000, 4994.35885223098010000000, 4254.35887032633850000000, 4288.71784384512650000000, 4032.30759370491840000000, 4461.02553193934640000000, 4474.87168544691850000000, 4801.02552362526330000000, 4116.92297625118680000000, 4016.92297869650570000000, 4063.07682372174350000000, 4397.94861040485560000000, 441.00000000000000000000, 4.00000000000000000000, 4.00000000000000000000, 4.00000000000000000000, 4.00000000000000000000, 4.00000000000000000000, 4.00000000000000000000, 4.00000000000000000000, 4.00000000000000000000, 4.00000000000000000000, 4.00000000000000000000, 4.00000000000000000000, 4.00000000000000000000, 4.00000000000000000000, 4.00000000000000000000, 4.00000000000000000000, 4.00000000000000000000, 1669.00000000000000000000, 1685.00000000000000000000, 0.00000000000000000000
92.00000000000000000000, 0.00000000000000000000, 4252.82040882549790000000, 4460.51271143906620000000, 4350.25630387877660000000, 4993.84603173069990000000, 4252.30758832521680000000, 4292.82040784737000000000, 4032.82041420519860000000, 4455.38450643626220000000, 4470.25630094439480000000, 4802.05116462582370000000, 4120.51271975315010000000, 4019.48708119790760000000, 4066.15374672342570000000, 4402.05117440709910000000, 418.00000000000000000000, 4.00000000000000000000, 4.00000000000000000000, 4.00000000000000000000, 4.00000000000000000000, 4.00000000000000000000, 4.00000000000000000000, 4.00000000000000000000, 4.00000000000000000000, 4.00000000000000000000, 4.00000000000000000000, 4.00000000000000000000, 4.00000000000000000000, 4.00000000000000000000, 4.00000000000000000000, 4.00000000000000000000, 4.00000000000000000000, 1670.00000000000000000000, 1686.00000000000000000000, 0.00000000000000000000
93.00000000000000000000, 0.00000000000000000000, 4263.58963933138600000000, 4470.76912144467500000000, 4363.07681638578740000000, 5003.58962123602760000000, 4262.05117783054540000000, 4298.46143335045510000000, 4027.69220920239470000000, 4459.48707043850570000000, 4469.74348044411360000000, 4801.53834412554350000000, 4126.66656575651540000000, 4029.23067070323580000000, 4069.74349022538850000000, 4413.84604591354860000000, 451.00000000000000000000, 4.00000000000000000000, 4.00000000000000000000, 4.00000000000000000000, 4.00000000000000000000, 4.00000000000000000000, 4.00000000000000000000, 4.00000000000000000000, 4.00000000000000000000, 4.00000000000000000000, 4.00000000000000000000, 4.00000000000000000000, 4.00000000000000000000, 4.00000000000000000000, 4.00000000000000000000, 4.00000000000000000000, 4.00000000000000000000, 1670.00000000000000000000, 1686.00000000000000000000, 0.00000000000000000000
94.00000000000000000000, 0.00000000000000000000, 4266.66656233306910000000, 4477.43578794832050000000, 4368.20502138859140000000, 5012.30756974079490000000, 4264.61528033194740000000, 4290.76912584624820000000, 4021.53836319902940000000, 4460.51271143906620000000, 4469.74348044411360000000, 4801.02552362526330000000, 4124.10246325511250000000, 4029.74349120351600000000, 4071.28195172623010000000, 4414.87168691410900000000, 463.00000000000000000000, 4.00000000000000000000, 4.00000000000000000000, 4.00000000000000000000, 4.00000000000000000000, 4.00000000000000000000, 4.00000000000000000000, 4.00000000000000000000, 4.00000000000000000000, 4.00000000000000000000, 4.00000000000000000000, 4.00000000000000000000, 4.00000000000000000000, 4.00000000000000000000, 4.00000000000000000000, 4.00000000000000000000, 4.00000000000000000000, 1670.00000000000000000000, 1686.00000000000000000000, 0.00000000000000000000
95.00000000000000000000, 0.00000000000000000000, 4263.58963933138600000000, 4477.43578794832050000000, 4363.07681638578740000000, 5011.28192874023440000000, 4265.12810083222760000000, 4290.25630534596800000000, 4026.66656820183380000000, 4459.48707043850570000000, 4474.35886494663740000000, 4808.20501062918900000000, 4119.48707875258880000000, 4025.12810670099220000000, 4075.89733622875380000000, 4410.76912291186640000000, 441.00000000000000000000, 4.00000000000000000000, 4.00000000000000000000, 4.00000000000000000000, 4.00000000000000000000, 4.00000000000000000000, 4.00000000000000000000, 4.00000000000000000000, 4.00000000000000000000, 4.00000000000000000000, 4.00000000000000000000, 4.00000000000000000000, 4.00000000000000000000, 4.00000000000000000000, 4.00000000000000000000, 4.00000000000000000000, 4.00000000000000000000, 1670.00000000000000000000, 1684.00000000000000000000, 0.00000000000000000000
96.00000000000000000000, 0.00000000000000000000, 4262.56399833082560000000, 4474.87168544691850000000, 4355.89732938186170000000, 5008.20500573855130000000, 4267.17938283334930000000, 4298.97425385073530000000, 4033.84605520575950000000, 4466.66655744243140000000, 4482.56399295112440000000, 4811.28193363087120000000, 4127.17938625679560000000, 4030.25631170379670000000, 4077.94861822987510000000, 4413.33322541326830000000, 418.00000000000000000000, 4.00000000000000000000, 4.00000000000000000000, 4.00000000000000000000, 4.00000000000000000000, 4.00000000000000000000, 4.00000000000000000000, 4.00000000000000000000, 4.00000000000000000000, 4.00000000000000000000, 4.00000000000000000000, 4.00000000000000000000, 4.00000000000000000000, 4.00000000000000000000, 4.00000000000000000000, 4.00000000000000000000, 4.00000000000000000000, 1670.00000000000000000000, 1684.00000000000000000000, 0.00000000000000000000
97.00000000000000000000, 0.00000000000000000000, 4263.07681883110580000000, 4473.84604444635720000000, 4355.89732938186170000000, 5006.66654423771070000000, 4259.48707532914250000000, 4298.46143335045510000000, 4034.87169620632040000000, 4472.30758294551560000000, 4488.20501845420860000000, 4811.79475413115230000000, 4135.38451426128180000000, 4033.33323470547930000000, 4075.38451572847320000000, 4416.41014841495050000000, 451.00000000000000000000, 4.00000000000000000000, 4.00000000000000000000, 4.00000000000000000000, 4.00000000000000000000, 4.00000000000000000000, 4.00000000000000000000, 4.00000000000000000000, 4.00000000000000000000, 4.00000000000000000000, 4.00000000000000000000, 4.00000000000000000000, 4.00000000000000000000, 4.00000000000000000000, 4.00000000000000000000, 4.00000000000000000000, 4.00000000000000000000, 1671.00000000000000000000, 1684.00000000000000000000, 0.00000000000000000000
98.00000000000000000000, 0.00000000000000000000, 4260.51271632970380000000, 4472.30758294551560000000, 4353.84604738073990000000, 5001.53833923490580000000, 4254.87169082661880000000, 4293.84604884793040000000, 4032.82041420519860000000, 4468.20501894327300000000, 4488.71783895448970000000, 4816.41013863367610000000, 4126.66656575651540000000, 4024.61528620071200000000, 4077.94861822987510000000, 4411.79476391242680000000, 463.00000000000000000000, 4.00000000000000000000, 4.00000000000000000000, 4.00000000000000000000, 4.00000000000000000000, 4.00000000000000000000, 4.00000000000000000000, 4.00000000000000000000, 4.00000000000000000000, 4.00000000000000000000, 4.00000000000000000000, 4.00000000000000000000, 4.00000000000000000000, 4.00000000000000000000, 4.00000000000000000000, 4.00000000000000000000, 4.00000000000000000000, 1669.00000000000000000000, 1686.00000000000000000000, 0.00000000000000000000
