title:                                                                                , recorded:16.08.19 14.40.58, sampling:128, subject:                                                                                , labels:COUNTER INTERPOLATED AF3 F7 F3 FC5 T7 P7 O1 O2 P8 T8 FC6 F4 F8 AF4 RAW_CQ CQ_AF3 CQ_F7 CQ_F3 CQ_FC5 CQ_T7 CQ_P7 CQ_O1 CQ_O2 CQ_P8 CQ_T8 CQ_FC6 CQ_F4 CQ_F8 CQ_AF4 CQ_CMS CQ_DRL GYROX GYROY MARKER, chan:36, units:emotiv
103.00000000000000000000, 0.00000000000000000000, 4371.79476489055470000000, 4511.28194096682730000000, 4445.64091693093450000000, 5043.58962025790060000000, 4321.02553536279270000000, 4349.74348337849640000000, 4095.38451523940970000000, 4459.48707043850570000000, 4491.79476195617190000000, 4846.66654815022050000000, 4267.17938283334930000000, 4083.07682323267950000000, 4122.05118125399170000000, 4403.07681540765950000000, 399.00000000000000000000, 4.00000000000000000000, 4.00000000000000000000, 4.00000000000000000000, 4.00000000000000000000, 4.00000000000000000000, 3.00000000000000000000, 4.00000000000000000000, 4.00000000000000000000, 4.00000000000000000000, 4.00000000000000000000, 4.00000000000000000000, 4.00000000000000000000, 4.00000000000000000000, 4.00000000000000000000, 4.00000000000000000000, 4.00000000000000000000, 1677.00000000000000000000, 1683.00000000000000000000, 0.00000000000000000000
104.00000000000000000000, 0.00000000000000000000, 4368.20502138859140000000, 4508.20501796514510000000, 4442.56399392925140000000, 5041.53833825677880000000, 4328.20502236671840000000, 4347.17938087709440000000, 4096.92297674025120000000, 4457.43578843738400000000, 4487.69219795392840000000, 4846.66654815022050000000, 4264.61528033194740000000, 4078.46143873015580000000, 4123.07682225455210000000, 4401.53835390681890000000, 413.00000000000000000000, 4.00000000000000000000, 4.00000000000000000000, 4.00000000000000000000, 4.00000000000000000000, 4.00000000000000000000, 3.00000000000000000000, 4.00000000000000000000, 4.00000000000000000000, 4.00000000000000000000, 4.00000000000000000000, 4.00000000000000000000, 4.00000000000000000000, 4.00000000000000000000, 4.00000000000000000000, 4.00000000000000000000, 4.00000000000000000000, 1676.00000000000000000000, 1683.00000000000000000000, 0.00000000000000000000
105.00000000000000000000, 0.00000000000000000000, 4367.17938038803090000000, 4504.10245396290160000000, 4444.10245543009300000000, 5036.92295375425510000000, 4326.66656086587770000000, 4352.30758587989840000000, 4107.17938674585910000000, 4464.61527544130970000000, 4488.20501845420860000000, 4844.10244564881850000000, 4261.02553682998400000000, 4080.51272073127760000000, 4121.02554025343030000000, 4403.07681540765950000000, 396.00000000000000000000, 4.00000000000000000000, 4.00000000000000000000, 4.00000000000000000000, 4.00000000000000000000, 4.00000000000000000000, 3.00000000000000000000, 4.00000000000000000000, 4.00000000000000000000, 4.00000000000000000000, 4.00000000000000000000, 4.00000000000000000000, 4.00000000000000000000, 4.00000000000000000000, 4.00000000000000000000, 4.00000000000000000000, 4.00000000000000000000, 1677.00000000000000000000, 1684.00000000000000000000, 0.00000000000000000000
106.00000000000000000000, 0.00000000000000000000, 4377.94861089391910000000, 4508.71783846542530000000, 4449.23066043289690000000, 5042.05115875705910000000, 4326.66656086587770000000, 4362.56399588550630000000, 4111.28195074810260000000, 4474.87168544691850000000, 4498.46142845981740000000, 4845.12808664937890000000, 4266.15374183278800000000, 4090.25631023660530000000, 4122.56400175427190000000, 4413.84604591354860000000, 444.00000000000000000000, 4.00000000000000000000, 4.00000000000000000000, 4.00000000000000000000, 4.00000000000000000000, 4.00000000000000000000, 3.00000000000000000000, 4.00000000000000000000, 4.00000000000000000000, 4.00000000000000000000, 4.00000000000000000000, 4.00000000000000000000, 4.00000000000000000000, 4.00000000000000000000, 4.00000000000000000000, 4.00000000000000000000, 4.00000000000000000000, 1675.00000000000000000000, 1683.00000000000000000000, 0.00000000000000000000
107.00000000000000000000, 0.00000000000000000000, 4380.51271339532100000000, 4510.25629996626690000000, 4447.69219893205630000000, 5042.05115875705910000000, 4330.25630436784010000000, 4366.66655988774980000000, 4109.23066874698090000000, 4476.41014694775910000000, 4502.56399246206090000000, 4847.69218915078090000000, 4266.15374183278800000000, 4090.25631023660530000000, 4122.56400175427190000000, 4413.84604591354860000000, 399.00000000000000000000, 4.00000000000000000000, 4.00000000000000000000, 4.00000000000000000000, 4.00000000000000000000, 4.00000000000000000000, 3.00000000000000000000, 4.00000000000000000000, 4.00000000000000000000, 4.00000000000000000000, 4.00000000000000000000, 4.00000000000000000000, 4.00000000000000000000, 4.00000000000000000000, 4.00000000000000000000, 4.00000000000000000000, 4.00000000000000000000, 1675.00000000000000000000, 1685.00000000000000000000, 0.00000000000000000000
108.00000000000000000000, 0.00000000000000000000, 4370.76912388999340000000, 4506.15373596402330000000, 4444.61527593037320000000, 5034.87167175313330000000, 4325.12809936503620000000, 4363.07681638578740000000, 4106.66656624557890000000, 4470.25630094439480000000, 4495.89732595841540000000, 4848.20500965106200000000, 4263.07681883110580000000, 4083.58964373295980000000, 4121.53836075371050000000, 4400.51271290625750000000, 413.00000000000000000000, 4.00000000000000000000, 4.00000000000000000000, 4.00000000000000000000, 4.00000000000000000000, 4.00000000000000000000, 3.00000000000000000000, 4.00000000000000000000, 4.00000000000000000000, 4.00000000000000000000, 4.00000000000000000000, 4.00000000000000000000, 4.00000000000000000000, 4.00000000000000000000, 4.00000000000000000000, 4.00000000000000000000, 4.00000000000000000000, 1674.00000000000000000000, 1684.00000000000000000000, 0.00000000000000000000
109.00000000000000000000, 0.00000000000000000000, 4367.69220088831120000000, 4505.12809496346290000000, 4444.61527593037320000000, 5031.28192825117000000000, 4320.51271486251240000000, 4364.10245738634790000000, 4106.15374574529870000000, 4466.66655744243140000000, 4490.25630045533030000000, 4844.61526614909870000000, 4262.56399833082560000000, 4081.02554123155780000000, 4123.07682225455210000000, 4394.87168740317340000000, 396.00000000000000000000, 4.00000000000000000000, 4.00000000000000000000, 4.00000000000000000000, 4.00000000000000000000, 4.00000000000000000000, 3.00000000000000000000, 4.00000000000000000000, 4.00000000000000000000, 4.00000000000000000000, 4.00000000000000000000, 4.00000000000000000000, 4.00000000000000000000, 4.00000000000000000000, 4.00000000000000000000, 4.00000000000000000000, 4.00000000000000000000, 1673.00000000000000000000, 1686.00000000000000000000, 0.00000000000000000000
110.00000000000000000000, 0.00000000000000000000, 4366.15373938746960000000, 4500.51271046093920000000, 4440.51271192813060000000, 5031.28192825117000000000, 4324.61527886475600000000, 4374.87168789223690000000, 4107.17938674585910000000, 4465.12809594158990000000, 4491.79476195617190000000, 4841.53834314741650000000, 4257.94861382830190000000, 4083.07682323267950000000, 4117.94861725174810000000, 4397.43578990457540000000, 444.00000000000000000000, 4.00000000000000000000, 4.00000000000000000000, 4.00000000000000000000, 4.00000000000000000000, 4.00000000000000000000, 3.00000000000000000000, 4.00000000000000000000, 4.00000000000000000000, 4.00000000000000000000, 4.00000000000000000000, 4.00000000000000000000, 4.00000000000000000000, 4.00000000000000000000, 4.00000000000000000000, 4.00000000000000000000, 4.00000000000000000000, 1671.00000000000000000000, 1686.00000000000000000000, 0.00000000000000000000
111.00000000000000000000, 0.00000000000000000000, 4356.92297038242210000000, 4491.79476195617190000000, 4432.30758392364350000000, 5026.66654374864630000000, 4325.64091986531640000000, 4377.43579039363890000000, 4101.02554074249380000000, 4461.02553193934640000000, 4492.30758245645210000000, 4842.56398414797700000000, 4248.71784482325440000000, 4084.61528473352060000000, 4112.82041224894330000000, 4394.87168740317340000000, 399.00000000000000000000, 4.00000000000000000000, 4.00000000000000000000, 4.00000000000000000000, 4.00000000000000000000, 4.00000000000000000000, 3.00000000000000000000, 4.00000000000000000000, 4.00000000000000000000, 4.00000000000000000000, 4.00000000000000000000, 4.00000000000000000000, 4.00000000000000000000, 4.00000000000000000000, 4.00000000000000000000, 4.00000000000000000000, 4.00000000000000000000, 1671.00000000000000000000, 1687.00000000000000000000, 0.00000000000000000000
112.00000000000000000000, 0.00000000000000000000, 4353.33322688045880000000, 4487.69219795392840000000, 4427.69219942111980000000, 5021.02551824556210000000, 4319.99989436223220000000, 4366.66655988774980000000, 4092.82041273800720000000, 4459.99989093878590000000, 4491.28194145589170000000, 4844.10244564881850000000, 4247.69220382269300000000, 4089.23066923604440000000, 4113.33323274922440000000, 4395.38450790345360000000, 413.00000000000000000000, 4.00000000000000000000, 4.00000000000000000000, 4.00000000000000000000, 4.00000000000000000000, 4.00000000000000000000, 3.00000000000000000000, 4.00000000000000000000, 4.00000000000000000000, 4.00000000000000000000, 4.00000000000000000000, 4.00000000000000000000, 4.00000000000000000000, 4.00000000000000000000, 4.00000000000000000000, 4.00000000000000000000, 4.00000000000000000000, 1670.00000000000000000000, 1686.00000000000000000000, 0.00000000000000000000
113.00000000000000000000, 0.00000000000000000000, 4355.89732938186170000000, 4491.79476195617190000000, 4427.69219942111980000000, 5022.56397974640370000000, 4320.51271486251240000000, 4364.10245738634790000000, 4091.28195123716610000000, 4461.53835243962750000000, 4492.82040295673230000000, 4844.10244564881850000000, 4256.92297282774050000000, 4091.28195123716610000000, 4114.35887374978480000000, 4399.99989240597730000000, 396.00000000000000000000, 4.00000000000000000000, 4.00000000000000000000, 4.00000000000000000000, 4.00000000000000000000, 4.00000000000000000000, 3.00000000000000000000, 4.00000000000000000000, 4.00000000000000000000, 4.00000000000000000000, 4.00000000000000000000, 4.00000000000000000000, 4.00000000000000000000, 4.00000000000000000000, 4.00000000000000000000, 4.00000000000000000000, 4.00000000000000000000, 1669.00000000000000000000, 1686.00000000000000000000, 0.00000000000000000000
114.00000000000000000000, 0.00000000000000000000, 4355.38450888158060000000, 4491.28194145589170000000, 4429.74348142224150000000, 5025.12808224780570000000, 4325.64091986531640000000, 4371.28194439027360000000, 4091.79477173744680000000, 4455.89732693654240000000, 4490.25630045533030000000, 4837.94859964545320000000, 4259.99989582942360000000, 4089.23066923604440000000, 4113.33323274922440000000, 4397.94861040485560000000, 444.00000000000000000000, 4.00000000000000000000, 4.00000000000000000000, 4.00000000000000000000, 4.00000000000000000000, 4.00000000000000000000, 3.00000000000000000000, 4.00000000000000000000, 4.00000000000000000000, 4.00000000000000000000, 4.00000000000000000000, 4.00000000000000000000, 4.00000000000000000000, 4.00000000000000000000, 4.00000000000000000000, 4.00000000000000000000, 4.00000000000000000000, 1670.00000000000000000000, 1685.00000000000000000000, 0.00000000000000000000
115.00000000000000000000, 0.00000000000000000000, 4359.99989338410430000000, 4491.79476195617190000000, 4437.43578892644750000000, 5029.74346675032940000000, 4324.10245836447580000000, 4367.17938038803090000000, 4090.25631023660530000000, 4451.28194243401870000000, 4489.23065945476990000000, 4836.41013814461170000000, 4257.43579332802160000000, 4092.82041273800720000000, 4119.99989925286990000000, 4395.89732840373380000000, 399.00000000000000000000, 4.00000000000000000000, 4.00000000000000000000, 4.00000000000000000000, 4.00000000000000000000, 4.00000000000000000000, 3.00000000000000000000, 4.00000000000000000000, 4.00000000000000000000, 4.00000000000000000000, 4.00000000000000000000, 4.00000000000000000000, 4.00000000000000000000, 4.00000000000000000000, 4.00000000000000000000, 4.00000000000000000000, 4.00000000000000000000, 1669.00000000000000000000, 1684.00000000000000000000, 0.00000000000000000000
116.00000000000000000000, 0.00000000000000000000, 4371.28194439027360000000, 4502.56399246206090000000, 4446.66655793149490000000, 5038.97423575537690000000, 4324.10245836447580000000, 4358.46143188326370000000, 4092.30759223772700000000, 4456.92296793710370000000, 4494.35886445757390000000, 4844.10244564881850000000, 4261.53835733026430000000, 4101.02554074249380000000, 4129.23066825791740000000, 4407.69219991018330000000, 413.00000000000000000000, 4.00000000000000000000, 4.00000000000000000000, 4.00000000000000000000, 4.00000000000000000000, 4.00000000000000000000, 3.00000000000000000000, 4.00000000000000000000, 4.00000000000000000000, 4.00000000000000000000, 4.00000000000000000000, 4.00000000000000000000, 4.00000000000000000000, 4.00000000000000000000, 4.00000000000000000000, 4.00000000000000000000, 4.00000000000000000000, 1670.00000000000000000000, 1685.00000000000000000000, 0.00000000000000000000
117.00000000000000000000, 0.00000000000000000000, 4372.82040589111510000000, 4509.74347946598660000000, 4447.69219893205630000000, 5042.05115875705910000000, 4327.69220186643820000000, 4363.07681638578740000000, 4097.43579724053140000000, 4460.51271143906620000000, 4492.82040295673230000000, 4850.25629165218290000000, 4267.69220333362950000000, 4101.02554074249380000000, 4132.30759125959960000000, 4416.41014841495050000000, 396.00000000000000000000, 4.00000000000000000000, 4.00000000000000000000, 4.00000000000000000000, 4.00000000000000000000, 4.00000000000000000000, 3.00000000000000000000, 4.00000000000000000000, 4.00000000000000000000, 4.00000000000000000000, 4.00000000000000000000, 4.00000000000000000000, 4.00000000000000000000, 4.00000000000000000000, 4.00000000000000000000, 4.00000000000000000000, 4.00000000000000000000, 1670.00000000000000000000, 1684.00000000000000000000, 0.00000000000000000000
118.00000000000000000000, 0.00000000000000000000, 4368.20502138859140000000, 4507.17937696458470000000, 4444.61527593037320000000, 5039.48705625565710000000, 4326.66656086587770000000, 4368.20502138859140000000, 4098.97425874137210000000, 4458.97424993822550000000, 4486.15373645308680000000, 4842.05116364769670000000, 4263.58963933138600000000, 4091.79477173744680000000, 4130.25630925847780000000, 4410.25630241158520000000, 444.00000000000000000000, 4.00000000000000000000, 4.00000000000000000000, 4.00000000000000000000, 4.00000000000000000000, 4.00000000000000000000, 3.00000000000000000000, 4.00000000000000000000, 4.00000000000000000000, 4.00000000000000000000, 4.00000000000000000000, 4.00000000000000000000, 4.00000000000000000000, 4.00000000000000000000, 4.00000000000000000000, 4.00000000000000000000, 4.00000000000000000000, 1670.00000000000000000000, 1685.00000000000000000000, 0.00000000000000000000
119.00000000000000000000, 0.00000000000000000000, 4372.82040589111510000000, 4507.17937696458470000000, 4445.64091693093450000000, 5039.99987675593730000000, 4325.12809936503620000000, 4366.15373938746960000000, 4095.38451523940970000000, 4459.99989093878590000000, 4487.69219795392840000000, 4831.79475364208790000000, 4258.97425482886230000000, 4092.30759223772700000000, 4124.61528375539360000000, 4407.69219991018330000000, 399.00000000000000000000, 4.00000000000000000000, 4.00000000000000000000, 4.00000000000000000000, 4.00000000000000000000, 4.00000000000000000000, 3.00000000000000000000, 4.00000000000000000000, 4.00000000000000000000, 4.00000000000000000000, 4.00000000000000000000, 4.00000000000000000000, 4.00000000000000000000, 4.00000000000000000000, 4.00000000000000000000, 4.00000000000000000000, 4.00000000000000000000, 1671.00000000000000000000, 1683.00000000000000000000, 0.00000000000000000000
120.00000000000000000000, 0.00000000000000000000, 4376.92296989335860000000, 4511.28194096682730000000, 4448.71783993261670000000, 5043.58962025790060000000, 4326.66656086587770000000, 4367.17938038803090000000, 4093.33323323828790000000, 4462.05117293990770000000, 4492.82040295673230000000, 4835.89731764433150000000, 4260.51271632970380000000, 4103.07682274361560000000, 4121.53836075371050000000, 4412.82040491298720000000, 413.00000000000000000000, 4.00000000000000000000, 4.00000000000000000000, 4.00000000000000000000, 4.00000000000000000000, 4.00000000000000000000, 3.00000000000000000000, 4.00000000000000000000, 4.00000000000000000000, 4.00000000000000000000, 4.00000000000000000000, 4.00000000000000000000, 4.00000000000000000000, 4.00000000000000000000, 4.00000000000000000000, 4.00000000000000000000, 4.00000000000000000000, 1671.00000000000000000000, 1685.00000000000000000000, 0.00000000000000000000
121.00000000000000000000, 0.00000000000000000000, 4369.74348288943290000000, 4509.74347946598660000000, 4445.12809643065430000000, 5042.05115875705910000000, 4326.66656086587770000000, 4368.20502138859140000000, 4089.23066923604440000000, 4460.51271143906620000000, 4491.79476195617190000000, 4840.51270214685520000000, 4256.92297282774050000000, 4102.05118174305520000000, 4124.10246325511250000000, 4408.71784091074460000000, 396.00000000000000000000, 4.00000000000000000000, 4.00000000000000000000, 4.00000000000000000000, 4.00000000000000000000, 4.00000000000000000000, 3.00000000000000000000, 4.00000000000000000000, 4.00000000000000000000, 4.00000000000000000000, 4.00000000000000000000, 4.00000000000000000000, 4.00000000000000000000, 4.00000000000000000000, 4.00000000000000000000, 4.00000000000000000000, 4.00000000000000000000, 1671.00000000000000000000, 1686.00000000000000000000, 0.00000000000000000000
122.00000000000000000000, 0.00000000000000000000, 4358.46143188326370000000, 4504.10245396290160000000, 4433.84604542448510000000, 5033.33321025229180000000, 4325.12809936503620000000, 4366.15373938746960000000, 4082.56400273239930000000, 4457.94860893766420000000, 4490.25630045533030000000, 4832.82039464264930000000, 4249.74348582381480000000, 4085.64092573408150000000, 4118.46143775202840000000, 4394.35886690289230000000, 444.00000000000000000000, 4.00000000000000000000, 4.00000000000000000000, 4.00000000000000000000, 4.00000000000000000000, 4.00000000000000000000, 3.00000000000000000000, 4.00000000000000000000, 4.00000000000000000000, 4.00000000000000000000, 4.00000000000000000000, 4.00000000000000000000, 4.00000000000000000000, 4.00000000000000000000, 4.00000000000000000000, 4.00000000000000000000, 4.00000000000000000000, 1672.00000000000000000000, 1687.00000000000000000000, 0.00000000000000000000
123.00000000000000000000, 0.00000000000000000000, 4351.79476537961820000000, 4497.43578745925610000000, 4426.15373792027820000000, 5027.69218474920760000000, 4325.64091986531640000000, 4374.87168789223690000000, 4087.17938723492310000000, 4458.97424993822550000000, 4491.28194145589170000000, 4824.61526663816220000000, 4247.17938332241280000000, 4074.87169522819290000000, 4112.30759174866310000000, 4388.20502089952790000000, 399.00000000000000000000, 4.00000000000000000000, 4.00000000000000000000, 4.00000000000000000000, 4.00000000000000000000, 4.00000000000000000000, 3.00000000000000000000, 4.00000000000000000000, 4.00000000000000000000, 4.00000000000000000000, 4.00000000000000000000, 4.00000000000000000000, 4.00000000000000000000, 4.00000000000000000000, 4.00000000000000000000, 4.00000000000000000000, 4.00000000000000000000, 1674.00000000000000000000, 1687.00000000000000000000, 0.00000000000000000000
124.00000000000000000000, 0.00000000000000000000, 4349.23066287821620000000, 4493.33322345701340000000, 4427.17937892083960000000, 5030.25628725060960000000, 4326.66656086587770000000, 4384.10245689728440000000, 4096.41015623997010000000, 4461.53835243962750000000, 4491.79476195617190000000, 4828.71783064040570000000, 4248.20502432297420000000, 4079.48707973071670000000, 4113.33323274922440000000, 4391.28194390121010000000, 413.00000000000000000000, 4.00000000000000000000, 4.00000000000000000000, 4.00000000000000000000, 4.00000000000000000000, 4.00000000000000000000, 3.00000000000000000000, 4.00000000000000000000, 4.00000000000000000000, 4.00000000000000000000, 4.00000000000000000000, 4.00000000000000000000, 4.00000000000000000000, 4.00000000000000000000, 4.00000000000000000000, 4.00000000000000000000, 4.00000000000000000000, 1674.00000000000000000000, 1687.00000000000000000000, 0.00000000000000000000
125.00000000000000000000, 0.00000000000000000000, 4348.71784237793510000000, 4493.33322345701340000000, 4428.20501992140000000000, 5030.25628725060960000000, 4322.56399686363420000000, 4381.02553389560220000000, 4091.28195123716610000000, 4461.53835243962750000000, 4493.84604395729370000000, 4829.74347164096620000000, 4250.76912682437610000000, 4080.51272073127760000000, 4116.92297625118680000000, 4395.89732840373380000000, 396.00000000000000000000, 4.00000000000000000000, 4.00000000000000000000, 4.00000000000000000000, 4.00000000000000000000, 4.00000000000000000000, 3.00000000000000000000, 4.00000000000000000000, 4.00000000000000000000, 4.00000000000000000000, 4.00000000000000000000, 4.00000000000000000000, 4.00000000000000000000, 4.00000000000000000000, 4.00000000000000000000, 4.00000000000000000000, 4.00000000000000000000, 1676.00000000000000000000, 1687.00000000000000000000, 0.00000000000000000000
126.00000000000000000000, 0.00000000000000000000, 4349.74348337849640000000, 4490.25630045533030000000, 4425.12809691971780000000, 5022.56397974640370000000, 4315.89733035998870000000, 4370.25630338971310000000, 4081.53836173183840000000, 4453.33322443514040000000, 4490.25630045533030000000, 4816.92295913395630000000, 4249.23066532353460000000, 4074.35887472791230000000, 4115.89733525062640000000, 4396.92296940429420000000, 444.00000000000000000000, 4.00000000000000000000, 4.00000000000000000000, 4.00000000000000000000, 4.00000000000000000000, 4.00000000000000000000, 3.00000000000000000000, 4.00000000000000000000, 4.00000000000000000000, 4.00000000000000000000, 4.00000000000000000000, 4.00000000000000000000, 4.00000000000000000000, 4.00000000000000000000, 4.00000000000000000000, 4.00000000000000000000, 4.00000000000000000000, 1676.00000000000000000000, 1687.00000000000000000000, 0.00000000000000000000
127.00000000000000000000, 0.00000000000000000000, 4348.20502187765490000000, 4487.17937745364820000000, 4424.61527641943760000000, 5018.97423624444040000000, 4315.89733035998870000000, 4362.56399588550630000000, 4082.05118223211870000000, 4443.07681442953250000000, 4476.41014694775910000000, 4808.20501062918900000000, 4244.61528082101090000000, 4073.33323372735140000000, 4113.84605324950460000000, 4392.82040540205160000000, 399.00000000000000000000, 4.00000000000000000000, 4.00000000000000000000, 4.00000000000000000000, 4.00000000000000000000, 4.00000000000000000000, 3.00000000000000000000, 4.00000000000000000000, 4.00000000000000000000, 4.00000000000000000000, 4.00000000000000000000, 4.00000000000000000000, 4.00000000000000000000, 4.00000000000000000000, 4.00000000000000000000, 4.00000000000000000000, 4.00000000000000000000, 1677.00000000000000000000, 1686.00000000000000000000, 0.00000000000000000000
128.00000000000000000000, 0.00000000000000000000, 4349.23066287821620000000, 4492.30758245645210000000, 4426.66655842055840000000, 5024.10244124724430000000, 4322.05117636335400000000, 4363.07681638578740000000, 4087.17938723492310000000, 4446.66655793149490000000, 4473.84604444635720000000, 4819.99988213563850000000, 4250.76912682437610000000, 4079.48707973071670000000, 4118.97425825230860000000, 4394.35886690289230000000, 413.00000000000000000000, 4.00000000000000000000, 4.00000000000000000000, 4.00000000000000000000, 4.00000000000000000000, 4.00000000000000000000, 3.00000000000000000000, 4.00000000000000000000, 4.00000000000000000000, 4.00000000000000000000, 4.00000000000000000000, 4.00000000000000000000, 4.00000000000000000000, 4.00000000000000000000, 4.00000000000000000000, 4.00000000000000000000, 4.00000000000000000000, 1676.00000000000000000000, 1688.00000000000000000000, 0.00000000000000000000
0.00000000000000000000, 0.00000000000000000000, 4352.30758587989840000000, 4492.30758245645210000000, 4426.66655842055840000000, 5025.64090274808590000000, 4327.17938136615790000000, 4369.74348288943290000000, 4093.33323323828790000000, 4460.51271143906620000000, 4486.66655695336790000000, 4835.38449714405120000000, 4257.94861382830190000000, 4081.53836173183840000000, 4123.07682225455210000000, 4401.02553340653780000000, 408.00000000000000000000, 4.00000000000000000000, 4.00000000000000000000, 4.00000000000000000000, 4.00000000000000000000, 4.00000000000000000000, 3.00000000000000000000, 4.00000000000000000000, 4.00000000000000000000, 4.00000000000000000000, 4.00000000000000000000, 4.00000000000000000000, 4.00000000000000000000, 4.00000000000000000000, 4.00000000000000000000, 4.00000000000000000000, 4.00000000000000000000, 1677.00000000000000000000, 1687.00000000000000000000, 0.00000000000000000000
1.00000000000000000000, 0.00000000000000000000, 4351.28194487933800000000, 4490.25630045533030000000, 4425.64091741999800000000, 5024.61526174752540000000, 4325.12809936503620000000, 4368.20502138859140000000, 4092.30759223772700000000, 4462.05117293990770000000, 4492.30758245645210000000, 4828.20501014012550000000, 4250.25630632409500000000, 4074.87169522819290000000, 4117.43579675146700000000, 4394.35886690289230000000, 442.00000000000000000000, 4.00000000000000000000, 4.00000000000000000000, 4.00000000000000000000, 4.00000000000000000000, 4.00000000000000000000, 3.00000000000000000000, 4.00000000000000000000, 4.00000000000000000000, 4.00000000000000000000, 4.00000000000000000000, 4.00000000000000000000, 4.00000000000000000000, 4.00000000000000000000, 4.00000000000000000000, 4.00000000000000000000, 4.00000000000000000000, 1676.00000000000000000000, 1687.00000000000000000000, 0.00000000000000000000
2.00000000000000000000, 0.00000000000000000000, 4350.76912437905680000000, 4501.02553096121940000000, 4426.66655842055840000000, 5030.76910775088980000000, 4319.99989436223220000000, 4357.43579088270230000000, 4078.46143873015580000000, 4451.28194243401870000000, 4489.74347995505010000000, 4823.58962563760180000000, 4245.64092182157130000000, 4069.23066972510830000000, 4113.33323274922440000000, 4387.17937989896650000000, 415.00000000000000000000, 4.00000000000000000000, 4.00000000000000000000, 4.00000000000000000000, 4.00000000000000000000, 4.00000000000000000000, 3.00000000000000000000, 4.00000000000000000000, 4.00000000000000000000, 4.00000000000000000000, 4.00000000000000000000, 4.00000000000000000000, 4.00000000000000000000, 4.00000000000000000000, 4.00000000000000000000, 4.00000000000000000000, 4.00000000000000000000, 1676.00000000000000000000, 1685.00000000000000000000, 0.00000000000000000000
3.00000000000000000000, 0.00000000000000000000, 4352.30758587989840000000, 4502.56399246206090000000, 4425.12809691971780000000, 5032.30756925173140000000, 4318.97425336167090000000, 4358.97425238354390000000, 4071.79477222651030000000, 4451.79476293429890000000, 4490.25630045533030000000, 4830.25629214124730000000, 4249.23066532353460000000, 4066.66656722370640000000, 4112.82041224894330000000, 4389.74348240036850000000, 453.00000000000000000000, 4.00000000000000000000, 4.00000000000000000000, 4.00000000000000000000, 4.00000000000000000000, 4.00000000000000000000, 3.00000000000000000000, 4.00000000000000000000, 4.00000000000000000000, 4.00000000000000000000, 4.00000000000000000000, 4.00000000000000000000, 4.00000000000000000000, 4.00000000000000000000, 4.00000000000000000000, 4.00000000000000000000, 4.00000000000000000000, 1673.00000000000000000000, 1686.00000000000000000000, 0.00000000000000000000
4.00000000000000000000, 0.00000000000000000000, 4352.30758587989840000000, 4489.23065945476990000000, 4421.02553291747430000000, 5022.05115924612260000000, 4318.97425336167090000000, 4365.64091888718940000000, 4074.35887472791230000000, 4454.87168593598200000000, 4488.20501845420860000000, 4818.97424113507800000000, 4242.56399881988910000000, 4063.58964422202370000000, 4105.64092524501760000000, 4385.12809789784480000000, 468.00000000000000000000, 4.00000000000000000000, 4.00000000000000000000, 4.00000000000000000000, 4.00000000000000000000, 4.00000000000000000000, 3.00000000000000000000, 4.00000000000000000000, 4.00000000000000000000, 4.00000000000000000000, 4.00000000000000000000, 4.00000000000000000000, 4.00000000000000000000, 4.00000000000000000000, 4.00000000000000000000, 4.00000000000000000000, 4.00000000000000000000, 1675.00000000000000000000, 1686.00000000000000000000, 0.00000000000000000000
5.00000000000000000000, 0.00000000000000000000, 4354.87168838130040000000, 4492.82040295673230000000, 4425.12809691971780000000, 5026.15372324836610000000, 4314.87168935942830000000, 4359.99989338410430000000, 4074.35887472791230000000, 4452.30758343458000000000, 4486.15373645308680000000, 4808.71783112946920000000, 4238.97425531792670000000, 4064.61528522258460000000, 4102.05118174305520000000, 4382.05117489616260000000, 330.00000000000000000000, 4.00000000000000000000, 4.00000000000000000000, 4.00000000000000000000, 4.00000000000000000000, 4.00000000000000000000, 3.00000000000000000000, 4.00000000000000000000, 4.00000000000000000000, 4.00000000000000000000, 4.00000000000000000000, 4.00000000000000000000, 4.00000000000000000000, 4.00000000000000000000, 4.00000000000000000000, 4.00000000000000000000, 4.00000000000000000000, 1672.00000000000000000000, 1687.00000000000000000000, 0.00000000000000000000
6.00000000000000000000, 0.00000000000000000000, 4359.48707288382410000000, 4504.10245396290160000000, 4430.76912242280200000000, 5037.94859475481550000000, 4311.28194585746500000000, 4357.43579088270230000000, 4082.05118223211870000000, 4455.38450643626220000000, 4490.76912095561060000000, 4821.02552313619980000000, 4247.17938332241280000000, 4071.79477222651030000000, 4111.79477124838290000000, 4392.30758490177050000000, 452.00000000000000000000, 4.00000000000000000000, 4.00000000000000000000, 4.00000000000000000000, 4.00000000000000000000, 4.00000000000000000000, 3.00000000000000000000, 4.00000000000000000000, 4.00000000000000000000, 4.00000000000000000000, 4.00000000000000000000, 4.00000000000000000000, 4.00000000000000000000, 4.00000000000000000000, 4.00000000000000000000, 4.00000000000000000000, 4.00000000000000000000, 1673.00000000000000000000, 1689.00000000000000000000, 0.00000000000000000000
7.00000000000000000000, 0.00000000000000000000, 4358.46143188326370000000, 4495.89732595841540000000, 4430.25630192252170000000, 5031.79474875145120000000, 4312.82040735830650000000, 4365.12809838690920000000, 4094.35887423884880000000, 4464.61527544130970000000, 4492.82040295673230000000, 4830.25629214124730000000, 4252.30758832521680000000, 4079.48707973071670000000, 4116.41015575090660000000, 4396.92296940429420000000, 422.00000000000000000000, 4.00000000000000000000, 4.00000000000000000000, 4.00000000000000000000, 4.00000000000000000000, 4.00000000000000000000, 3.00000000000000000000, 4.00000000000000000000, 4.00000000000000000000, 4.00000000000000000000, 4.00000000000000000000, 4.00000000000000000000, 4.00000000000000000000, 4.00000000000000000000, 4.00000000000000000000, 4.00000000000000000000, 4.00000000000000000000, 1674.00000000000000000000, 1687.00000000000000000000, 0.00000000000000000000
8.00000000000000000000, 0.00000000000000000000, 4350.76912437905680000000, 4484.61527495224620000000, 4427.69219942111980000000, 5020.51269774528190000000, 4314.35886885914720000000, 4369.23066238915180000000, 4094.35887423884880000000, 4471.28194194495520000000, 4490.25630045533030000000, 4824.61526663816220000000, 4253.84604982605830000000, 4084.61528473352060000000, 4116.41015575090660000000, 4392.82040540205160000000, 369.00000000000000000000, 4.00000000000000000000, 4.00000000000000000000, 4.00000000000000000000, 4.00000000000000000000, 4.00000000000000000000, 3.00000000000000000000, 4.00000000000000000000, 4.00000000000000000000, 4.00000000000000000000, 4.00000000000000000000, 4.00000000000000000000, 4.00000000000000000000, 4.00000000000000000000, 4.00000000000000000000, 4.00000000000000000000, 4.00000000000000000000, 1672.00000000000000000000, 1688.00000000000000000000, 0.00000000000000000000
9.00000000000000000000, 0.00000000000000000000, 4349.23066287821620000000, 4491.28194145589170000000, 4428.71784042168020000000, 5026.15372324836610000000, 4318.46143286139070000000, 4366.66655988774980000000, 4090.76913073688590000000, 4473.84604444635720000000, 4496.92296695897580000000, 4829.74347164096620000000, 4259.99989582942360000000, 4090.25631023660530000000, 4120.51271975315010000000, 4396.41014890401400000000, 413.00000000000000000000, 4.00000000000000000000, 4.00000000000000000000, 4.00000000000000000000, 4.00000000000000000000, 4.00000000000000000000, 3.00000000000000000000, 4.00000000000000000000, 4.00000000000000000000, 4.00000000000000000000, 4.00000000000000000000, 4.00000000000000000000, 4.00000000000000000000, 4.00000000000000000000, 4.00000000000000000000, 4.00000000000000000000, 4.00000000000000000000, 1673.00000000000000000000, 1687.00000000000000000000, 0.00000000000000000000
10.00000000000000000000, 0.00000000000000000000, 4355.89732938186170000000, 4500.51271046093920000000, 4431.79476342336330000000, 5033.33321025229180000000, 4325.12809936503620000000, 4368.71784188887160000000, 4092.30759223772700000000, 4475.38450594719870000000, 4506.15373596402330000000, 4846.15372764994030000000, 4265.12810083222760000000, 4097.94861774081160000000, 4124.61528375539360000000, 4401.02553340653780000000, 444.00000000000000000000, 4.00000000000000000000, 4.00000000000000000000, 4.00000000000000000000, 4.00000000000000000000, 4.00000000000000000000, 3.00000000000000000000, 4.00000000000000000000, 4.00000000000000000000, 4.00000000000000000000, 4.00000000000000000000, 4.00000000000000000000, 4.00000000000000000000, 4.00000000000000000000, 4.00000000000000000000, 4.00000000000000000000, 4.00000000000000000000, 1672.00000000000000000000, 1687.00000000000000000000, 0.00000000000000000000
11.00000000000000000000, 0.00000000000000000000, 4359.99989338410430000000, 4496.92296695897580000000, 4432.30758392364350000000, 5030.25628725060960000000, 4324.10245836447580000000, 4373.84604689167550000000, 4093.33323323828790000000, 4476.41014694775910000000, 4505.12809496346290000000, 4847.69218915078090000000, 4266.66656233306910000000, 4103.07682274361560000000, 4126.15374525623430000000, 4398.97425140541600000000, 399.00000000000000000000, 4.00000000000000000000, 4.00000000000000000000, 4.00000000000000000000, 4.00000000000000000000, 4.00000000000000000000, 3.00000000000000000000, 4.00000000000000000000, 4.00000000000000000000, 4.00000000000000000000, 4.00000000000000000000, 4.00000000000000000000, 4.00000000000000000000, 4.00000000000000000000, 4.00000000000000000000, 4.00000000000000000000, 4.00000000000000000000, 1672.00000000000000000000, 1686.00000000000000000000, 0.00000000000000000000
12.00000000000000000000, 0.00000000000000000000, 4353.33322688045880000000, 4489.74347995505010000000, 4428.20501992140000000000, 5024.61526174752540000000, 4313.33322785858670000000, 4370.76912388999340000000, 4092.82041273800720000000, 4474.87168544691850000000, 4504.10245396290160000000, 4833.33321514292950000000, 4263.58963933138600000000, 4099.48707924165320000000, 4119.99989925286990000000, 4393.84604640261200000000, 413.00000000000000000000, 4.00000000000000000000, 4.00000000000000000000, 4.00000000000000000000, 4.00000000000000000000, 4.00000000000000000000, 3.00000000000000000000, 4.00000000000000000000, 4.00000000000000000000, 4.00000000000000000000, 4.00000000000000000000, 4.00000000000000000000, 4.00000000000000000000, 4.00000000000000000000, 4.00000000000000000000, 4.00000000000000000000, 4.00000000000000000000, 1671.00000000000000000000, 1687.00000000000000000000, 0.00000000000000000000
13.00000000000000000000, 0.00000000000000000000, 4348.20502187765490000000, 4488.71783895448970000000, 4427.69219942111980000000, 5024.10244124724430000000, 4310.25630485690450000000, 4364.10245738634790000000, 4087.17938723492310000000, 4467.17937794271170000000, 4504.10245396290160000000, 4825.64090763872350000000, 4254.35887032633850000000, 4091.28195123716610000000, 4110.76913024782240000000, 4387.17937989896650000000, 396.00000000000000000000, 4.00000000000000000000, 4.00000000000000000000, 4.00000000000000000000, 4.00000000000000000000, 4.00000000000000000000, 3.00000000000000000000, 4.00000000000000000000, 4.00000000000000000000, 4.00000000000000000000, 4.00000000000000000000, 4.00000000000000000000, 4.00000000000000000000, 4.00000000000000000000, 4.00000000000000000000, 4.00000000000000000000, 4.00000000000000000000, 1672.00000000000000000000, 1687.00000000000000000000, 0.00000000000000000000
14.00000000000000000000, 0.00000000000000000000, 4350.76912437905680000000, 4492.30758245645210000000, 4429.74348142224150000000, 5025.64090274808590000000, 4317.43579186083020000000, 4365.12809838690920000000, 4079.48707973071670000000, 4461.02553193934640000000, 4498.46142845981740000000, 4836.41013814461170000000, 4254.35887032633850000000, 4093.84605373856810000000, 4113.33323274922440000000, 4388.20502089952790000000, 444.00000000000000000000, 4.00000000000000000000, 4.00000000000000000000, 4.00000000000000000000, 4.00000000000000000000, 4.00000000000000000000, 3.00000000000000000000, 4.00000000000000000000, 4.00000000000000000000, 4.00000000000000000000, 4.00000000000000000000, 4.00000000000000000000, 4.00000000000000000000, 4.00000000000000000000, 4.00000000000000000000, 4.00000000000000000000, 4.00000000000000000000, 1672.00000000000000000000, 1688.00000000000000000000, 0.00000000000000000000
15.00000000000000000000, 0.00000000000000000000, 4352.30758587989840000000, 4493.84604395729370000000, 4430.25630192252170000000, 5026.15372324836610000000, 4319.48707386195200000000, 4367.69220088831120000000, 4082.56400273239930000000, 4460.51271143906620000000, 4493.33322345701340000000, 4844.10244564881850000000, 4264.10245983166710000000, 4102.56400224333540000000, 4122.05118125399170000000, 4395.38450790345360000000, 399.00000000000000000000, 4.00000000000000000000, 4.00000000000000000000, 4.00000000000000000000, 4.00000000000000000000, 4.00000000000000000000, 3.00000000000000000000, 4.00000000000000000000, 4.00000000000000000000, 4.00000000000000000000, 4.00000000000000000000, 4.00000000000000000000, 4.00000000000000000000, 4.00000000000000000000, 4.00000000000000000000, 4.00000000000000000000, 4.00000000000000000000, 1673.00000000000000000000, 1687.00000000000000000000, 0.00000000000000000000
16.00000000000000000000, 0.00000000000000000000, 4351.79476537961820000000, 4492.82040295673230000000, 4431.79476342336330000000, 5028.71782574976810000000, 4318.97425336167090000000, 4365.64091888718940000000, 4086.66656673464240000000, 4459.99989093878590000000, 4493.84604395729370000000, 4839.99988164657500000000, 4267.17938283334930000000, 4102.05118174305520000000, 4124.10246325511250000000, 4403.07681540765950000000, 0.00000000000000000000, 4.00000000000000000000, 4.00000000000000000000, 4.00000000000000000000, 4.00000000000000000000, 4.00000000000000000000, 3.00000000000000000000, 4.00000000000000000000, 4.00000000000000000000, 4.00000000000000000000, 4.00000000000000000000, 4.00000000000000000000, 4.00000000000000000000, 4.00000000000000000000, 4.00000000000000000000, 4.00000000000000000000, 4.00000000000000000000, 1672.00000000000000000000, 1686.00000000000000000000, 0.00000000000000000000
17.00000000000000000000, 0.00000000000000000000, 4350.25630387877660000000, 4490.25630045533030000000, 4429.74348142224150000000, 5025.64090274808590000000, 4316.41015086026890000000, 4365.12809838690920000000, 4078.97425923043600000000, 4459.48707043850570000000, 4490.25630045533030000000, 4832.30757414236900000000, 4261.02553682998400000000, 4095.38451523940970000000, 4122.56400175427190000000, 4399.99989240597730000000, 0.00000000000000000000, 4.00000000000000000000, 4.00000000000000000000, 4.00000000000000000000, 4.00000000000000000000, 4.00000000000000000000, 3.00000000000000000000, 4.00000000000000000000, 4.00000000000000000000, 4.00000000000000000000, 4.00000000000000000000, 4.00000000000000000000, 4.00000000000000000000, 4.00000000000000000000, 4.00000000000000000000, 4.00000000000000000000, 4.00000000000000000000, 1673.00000000000000000000, 1686.00000000000000000000, 0.00000000000000000000
18.00000000000000000000, 0.00000000000000000000, 4347.17938087709440000000, 4487.17937745364820000000, 4424.61527641943760000000, 5021.02551824556210000000, 4312.82040735830650000000, 4365.64091888718940000000, 4074.35887472791230000000, 4456.92296793710370000000, 4488.71783895448970000000, 4826.66654863928400000000, 4260.51271632970380000000, 4091.28195123716610000000, 4118.97425825230860000000, 4389.23066190008830000000, 0.00000000000000000000, 4.00000000000000000000, 4.00000000000000000000, 4.00000000000000000000, 4.00000000000000000000, 4.00000000000000000000, 3.00000000000000000000, 4.00000000000000000000, 4.00000000000000000000, 4.00000000000000000000, 4.00000000000000000000, 4.00000000000000000000, 4.00000000000000000000, 4.00000000000000000000, 4.00000000000000000000, 4.00000000000000000000, 4.00000000000000000000, 1673.00000000000000000000, 1684.00000000000000000000, 0.00000000000000000000
19.00000000000000000000, 0.00000000000000000000, 4353.33322688045880000000, 4491.79476195617190000000, 4428.71784042168020000000, 5032.30756925173140000000, 4314.87168935942830000000, 4365.64091888718940000000, 4077.43579772959490000000, 4453.84604493542070000000, 4491.79476195617190000000, 4828.20501014012550000000, 4262.56399833082560000000, 4092.30759223772700000000, 4112.82041224894330000000, 4391.28194390121010000000, 0.00000000000000000000, 4.00000000000000000000, 4.00000000000000000000, 4.00000000000000000000, 4.00000000000000000000, 4.00000000000000000000, 3.00000000000000000000, 4.00000000000000000000, 4.00000000000000000000, 4.00000000000000000000, 4.00000000000000000000, 4.00000000000000000000, 4.00000000000000000000, 4.00000000000000000000, 4.00000000000000000000, 4.00000000000000000000, 4.00000000000000000000, 1671.00000000000000000000, 1685.00000000000000000000, 0.00000000000000000000
20.00000000000000000000, 0.00000000000000000000, 4356.92297038242210000000, 4492.30758245645210000000, 4433.84604542448510000000, 5038.97423575537690000000, 4316.41015086026890000000, 4365.12809838690920000000, 4073.33323372735140000000, 4447.69219893205630000000, 4484.10245445196600000000, 4821.02552313619980000000, 4253.84604982605830000000, 4085.12810523380130000000, 4108.71784824670070000000, 4395.38450790345360000000, 0.00000000000000000000, 4.00000000000000000000, 4.00000000000000000000, 4.00000000000000000000, 4.00000000000000000000, 4.00000000000000000000, 3.00000000000000000000, 4.00000000000000000000, 4.00000000000000000000, 4.00000000000000000000, 4.00000000000000000000, 4.00000000000000000000, 4.00000000000000000000, 4.00000000000000000000, 4.00000000000000000000, 4.00000000000000000000, 4.00000000000000000000, 1672.00000000000000000000, 1684.00000000000000000000, 0.00000000000000000000
21.00000000000000000000, 0.00000000000000000000, 4346.15373987653310000000, 4485.64091595280660000000, 4425.64091741999800000000, 5025.12808224780570000000, 4312.30758685802630000000, 4360.51271388438540000000, 4065.64092622314550000000, 4437.94860942672770000000, 4471.79476244523540000000, 4801.02552362526330000000, 4243.07681932016930000000, 4072.30759272679100000000, 4103.58964324389580000000, 4382.56399539644280000000, 0.00000000000000000000, 4.00000000000000000000, 4.00000000000000000000, 4.00000000000000000000, 4.00000000000000000000, 4.00000000000000000000, 3.00000000000000000000, 4.00000000000000000000, 4.00000000000000000000, 4.00000000000000000000, 4.00000000000000000000, 4.00000000000000000000, 4.00000000000000000000, 4.00000000000000000000, 4.00000000000000000000, 4.00000000000000000000, 4.00000000000000000000, 1670.00000000000000000000, 1685.00000000000000000000, 0.00000000000000000000
22.00000000000000000000, 0.00000000000000000000, 4341.53835537400940000000, 4486.15373645308680000000, 4421.02553291747430000000, 5019.48705674472060000000, 4311.28194585746500000000, 4356.41014988214190000000, 4065.12810572286480000000, 4435.38450692532570000000, 4473.33322394607690000000, 4798.97424162414150000000, 4243.58963982045040000000, 4071.79477222651030000000, 4104.61528424445710000000, 4379.48707239476060000000, 0.00000000000000000000, 4.00000000000000000000, 4.00000000000000000000, 4.00000000000000000000, 4.00000000000000000000, 4.00000000000000000000, 3.00000000000000000000, 4.00000000000000000000, 4.00000000000000000000, 4.00000000000000000000, 4.00000000000000000000, 4.00000000000000000000, 4.00000000000000000000, 4.00000000000000000000, 4.00000000000000000000, 4.00000000000000000000, 4.00000000000000000000, 1670.00000000000000000000, 1685.00000000000000000000, 0.00000000000000000000
23.00000000000000000000, 0.00000000000000000000, 4352.30758587989840000000, 4492.82040295673230000000, 4429.74348142224150000000, 5030.76910775088980000000, 4311.79476635774520000000, 4356.92297038242210000000, 4066.66656722370640000000, 4442.56399392925140000000, 4480.51271095000270000000, 4814.87167713283450000000, 4249.23066532353460000000, 4081.02554123155780000000, 4113.33323274922440000000, 4393.84604640261200000000, 0.00000000000000000000, 4.00000000000000000000, 4.00000000000000000000, 4.00000000000000000000, 4.00000000000000000000, 4.00000000000000000000, 3.00000000000000000000, 4.00000000000000000000, 4.00000000000000000000, 4.00000000000000000000, 4.00000000000000000000, 4.00000000000000000000, 4.00000000000000000000, 4.00000000000000000000, 4.00000000000000000000, 4.00000000000000000000, 4.00000000000000000000, 1669.00000000000000000000, 1685.00000000000000000000, 0.00000000000000000000
24.00000000000000000000, 0.00000000000000000000, 4351.28194487933800000000, 4491.28194145589170000000, 4430.25630192252170000000, 5030.25628725060960000000, 4310.25630485690450000000, 4354.87168838130040000000, 4065.64092622314550000000, 4445.12809643065430000000, 4476.92296744803930000000, 4815.38449763311470000000, 4249.23066532353460000000, 4076.41015672903400000000, 4108.20502774641950000000, 4393.84604640261200000000, 0.00000000000000000000, 4.00000000000000000000, 4.00000000000000000000, 4.00000000000000000000, 4.00000000000000000000, 4.00000000000000000000, 3.00000000000000000000, 4.00000000000000000000, 4.00000000000000000000, 4.00000000000000000000, 4.00000000000000000000, 4.00000000000000000000, 4.00000000000000000000, 4.00000000000000000000, 4.00000000000000000000, 4.00000000000000000000, 4.00000000000000000000, 1669.00000000000000000000, 1686.00000000000000000000, 0.00000000000000000000
25.00000000000000000000, 0.00000000000000000000, 4341.53835537400940000000, 4488.20501845420860000000, 4420.51271241719410000000, 5020.51269774528190000000, 4307.69220235550260000000, 4351.79476537961820000000, 4066.15374672342570000000, 4440.51271192813060000000, 4478.46142894888090000000, 4805.64090812778700000000, 4243.58963982045040000000, 4064.61528522258460000000, 4094.35887423884880000000, 4378.46143139419930000000, 0.00000000000000000000, 4.00000000000000000000, 4.00000000000000000000, 4.00000000000000000000, 4.00000000000000000000, 4.00000000000000000000, 3.00000000000000000000, 4.00000000000000000000, 4.00000000000000000000, 4.00000000000000000000, 4.00000000000000000000, 4.00000000000000000000, 4.00000000000000000000, 4.00000000000000000000, 4.00000000000000000000, 4.00000000000000000000, 4.00000000000000000000, 1668.00000000000000000000, 1686.00000000000000000000, 0.00000000000000000000
26.00000000000000000000, 0.00000000000000000000, 4338.46143237232720000000, 4487.69219795392840000000, 4415.38450741439010000000, 5016.92295424331860000000, 4306.66656135494120000000, 4356.92297038242210000000, 4065.12810572286480000000, 4443.07681442953250000000, 4489.74347995505010000000, 4810.76911313059100000000, 4238.97425531792670000000, 4064.61528522258460000000, 4092.82041273800720000000, 4372.30758539083490000000, 0.00000000000000000000, 4.00000000000000000000, 4.00000000000000000000, 4.00000000000000000000, 4.00000000000000000000, 4.00000000000000000000, 3.00000000000000000000, 4.00000000000000000000, 4.00000000000000000000, 4.00000000000000000000, 4.00000000000000000000, 4.00000000000000000000, 4.00000000000000000000, 4.00000000000000000000, 4.00000000000000000000, 4.00000000000000000000, 4.00000000000000000000, 1669.00000000000000000000, 1687.00000000000000000000, 0.00000000000000000000
27.00000000000000000000, 0.00000000000000000000, 4337.43579137176680000000, 4476.92296744803930000000, 4413.33322541326830000000, 5015.89731324275820000000, 4306.66656135494120000000, 4365.64091888718940000000, 4065.64092622314550000000, 4454.35886543570180000000, 4492.30758245645210000000, 4814.87167713283450000000, 4240.51271681876730000000, 4070.25631072566920000000, 4094.35887423884880000000, 4375.38450839251710000000, 0.00000000000000000000, 4.00000000000000000000, 4.00000000000000000000, 4.00000000000000000000, 4.00000000000000000000, 4.00000000000000000000, 3.00000000000000000000, 4.00000000000000000000, 4.00000000000000000000, 4.00000000000000000000, 4.00000000000000000000, 4.00000000000000000000, 4.00000000000000000000, 4.00000000000000000000, 4.00000000000000000000, 4.00000000000000000000, 4.00000000000000000000, 1668.00000000000000000000, 1687.00000000000000000000, 0.00000000000000000000
28.00000000000000000000, 0.00000000000000000000, 4335.89732987092520000000, 4471.79476244523540000000, 4415.89732791467030000000, 5019.48705674472060000000, 4308.20502285578280000000, 4365.64091888718940000000, 4071.28195172623010000000, 4460.51271143906620000000, 4489.23065945476990000000, 4813.84603613227410000000, 4246.15374232185240000000, 4073.33323372735140000000, 4095.38451523940970000000, 4380.51271339532100000000, 0.00000000000000000000, 4.00000000000000000000, 4.00000000000000000000, 4.00000000000000000000, 4.00000000000000000000, 4.00000000000000000000, 3.00000000000000000000, 4.00000000000000000000, 4.00000000000000000000, 4.00000000000000000000, 4.00000000000000000000, 4.00000000000000000000, 4.00000000000000000000, 4.00000000000000000000, 4.00000000000000000000, 4.00000000000000000000, 4.00000000000000000000, 1668.00000000000000000000, 1689.00000000000000000000, 0.00000000000000000000
29.00000000000000000000, 0.00000000000000000000, 4343.07681687485090000000, 4490.25630045533030000000, 4427.17937892083960000000, 5026.66654374864630000000, 4309.74348435662340000000, 4365.64091888718940000000, 4076.92297722931470000000, 4459.99989093878590000000, 4492.30758245645210000000, 4819.99988213563850000000, 4254.35887032633850000000, 4077.94861822987510000000, 4105.64092524501760000000, 4389.74348240036850000000, 0.00000000000000000000, 4.00000000000000000000, 4.00000000000000000000, 4.00000000000000000000, 4.00000000000000000000, 4.00000000000000000000, 3.00000000000000000000, 4.00000000000000000000, 4.00000000000000000000, 4.00000000000000000000, 4.00000000000000000000, 4.00000000000000000000, 4.00000000000000000000, 4.00000000000000000000, 4.00000000000000000000, 4.00000000000000000000, 4.00000000000000000000, 1669.00000000000000000000, 1688.00000000000000000000, 0.00000000000000000000
30.00000000000000000000, 0.00000000000000000000, 4349.23066287821620000000, 4491.79476195617190000000, 4432.30758392364350000000, 5025.64090274808590000000, 4309.74348435662340000000, 4365.12809838690920000000, 4078.46143873015580000000, 4460.51271143906620000000, 4495.38450545813430000000, 4827.17936913956420000000, 4262.56399833082560000000, 4085.12810523380130000000, 4112.82041224894330000000, 4398.46143090513580000000, 0.00000000000000000000, 4.00000000000000000000, 4.00000000000000000000, 4.00000000000000000000, 4.00000000000000000000, 4.00000000000000000000, 3.00000000000000000000, 4.00000000000000000000, 4.00000000000000000000, 4.00000000000000000000, 4.00000000000000000000, 4.00000000000000000000, 4.00000000000000000000, 4.00000000000000000000, 4.00000000000000000000, 4.00000000000000000000, 4.00000000000000000000, 1669.00000000000000000000, 1689.00000000000000000000, 0.00000000000000000000
31.00000000000000000000, 0.00000000000000000000, 4347.17938087709440000000, 4475.38450594719870000000, 4430.25630192252170000000, 5021.53833874584230000000, 4308.20502285578280000000, 4357.94861138298260000000, 4075.38451572847320000000, 4456.41014743682260000000, 4492.30758245645210000000, 4829.74347164096620000000, 4265.12810083222760000000, 4087.17938723492310000000, 4110.76913024782240000000, 4401.02553340653780000000, 0.00000000000000000000, 4.00000000000000000000, 4.00000000000000000000, 4.00000000000000000000, 4.00000000000000000000, 4.00000000000000000000, 3.00000000000000000000, 4.00000000000000000000, 4.00000000000000000000, 4.00000000000000000000, 4.00000000000000000000, 4.00000000000000000000, 4.00000000000000000000, 4.00000000000000000000, 4.00000000000000000000, 4.00000000000000000000, 4.00000000000000000000, 1670.00000000000000000000, 1687.00000000000000000000, 0.00000000000000000000
32.00000000000000000000, 0.00000000000000000000, 4343.58963737513110000000, 4479.99989044972240000000, 4427.17937892083960000000, 5022.05115924612260000000, 4306.66656135494120000000, 4355.38450888158060000000, 4068.71784922482770000000, 4445.12809643065430000000, 4491.28194145589170000000, 4822.56398463704040000000, 4255.89733182718010000000, 4077.94861822987510000000, 4105.64092524501760000000, 4391.79476440149030000000, 0.00000000000000000000, 4.00000000000000000000, 4.00000000000000000000, 4.00000000000000000000, 4.00000000000000000000, 4.00000000000000000000, 3.00000000000000000000, 4.00000000000000000000, 4.00000000000000000000, 4.00000000000000000000, 4.00000000000000000000, 4.00000000000000000000, 4.00000000000000000000, 4.00000000000000000000, 4.00000000000000000000, 4.00000000000000000000, 4.00000000000000000000, 1670.00000000000000000000, 1687.00000000000000000000, 0.00000000000000000000
33.00000000000000000000, 0.00000000000000000000, 4341.53835537400940000000, 4498.46142845981740000000, 4422.05117391803470000000, 5026.15372324836610000000, 4307.17938185522140000000, 4359.99989338410430000000, 4063.07682372174350000000, 4438.97425042728900000000, 4489.74347995505010000000, 4810.76911313059100000000, 4239.48707581820690000000, 4065.12810572286480000000, 4095.89733573968990000000, 4376.41014939307840000000, 0.00000000000000000000, 4.00000000000000000000, 4.00000000000000000000, 4.00000000000000000000, 4.00000000000000000000, 4.00000000000000000000, 3.00000000000000000000, 4.00000000000000000000, 4.00000000000000000000, 4.00000000000000000000, 4.00000000000000000000, 4.00000000000000000000, 4.00000000000000000000, 4.00000000000000000000, 4.00000000000000000000, 4.00000000000000000000, 4.00000000000000000000, 1672.00000000000000000000, 1687.00000000000000000000, 0.00000000000000000000
34.00000000000000000000, 0.00000000000000000000, 4342.56399637457070000000, 4507.17937696458470000000, 4421.53835341775450000000, 5033.84603075257290000000, 4310.76912535718470000000, 4356.41014988214190000000, 4056.92297771837820000000, 4435.38450692532570000000, 4479.48706994944220000000, 4811.28193363087120000000, 4231.28194781371990000000, 4065.12810572286480000000, 4087.69220773520330000000, 4369.23066238915180000000, 0.00000000000000000000, 4.00000000000000000000, 4.00000000000000000000, 4.00000000000000000000, 4.00000000000000000000, 4.00000000000000000000, 3.00000000000000000000, 4.00000000000000000000, 4.00000000000000000000, 4.00000000000000000000, 4.00000000000000000000, 4.00000000000000000000, 4.00000000000000000000, 4.00000000000000000000, 4.00000000000000000000, 4.00000000000000000000, 4.00000000000000000000, 1673.00000000000000000000, 1685.00000000000000000000, 0.00000000000000000000
35.00000000000000000000, 0.00000000000000000000, 4341.02553487372920000000, 4510.76912046654710000000, 4423.07681491859600000000, 5037.43577425453530000000, 4314.35886885914720000000, 4350.76912437905680000000, 4050.25631121473270000000, 4432.30758392364350000000, 4473.84604444635720000000, 4817.94860013451670000000, 4234.87169131568320000000, 4067.69220822426720000000, 4081.53836173183840000000, 4369.23066238915180000000, 0.00000000000000000000, 4.00000000000000000000, 4.00000000000000000000, 4.00000000000000000000, 4.00000000000000000000, 4.00000000000000000000, 3.00000000000000000000, 4.00000000000000000000, 4.00000000000000000000, 4.00000000000000000000, 4.00000000000000000000, 4.00000000000000000000, 4.00000000000000000000, 4.00000000000000000000, 4.00000000000000000000, 4.00000000000000000000, 4.00000000000000000000, 1674.00000000000000000000, 1686.00000000000000000000, 0.00000000000000000000
36.00000000000000000000, 0.00000000000000000000, 4331.79476586868170000000, 4503.58963346262140000000, 4414.87168691410900000000, 5026.66654374864630000000, 4311.28194585746500000000, 4359.99989338410430000000, 4057.43579821865890000000, 4441.02553242841080000000, 4479.48706994944220000000, 4812.30757463143250000000, 4230.76912731343960000000, 4056.92297771837820000000, 4071.79477222651030000000, 4362.56399588550630000000, 0.00000000000000000000, 4.00000000000000000000, 4.00000000000000000000, 4.00000000000000000000, 4.00000000000000000000, 4.00000000000000000000, 3.00000000000000000000, 4.00000000000000000000, 4.00000000000000000000, 4.00000000000000000000, 4.00000000000000000000, 4.00000000000000000000, 4.00000000000000000000, 4.00000000000000000000, 4.00000000000000000000, 4.00000000000000000000, 4.00000000000000000000, 1674.00000000000000000000, 1685.00000000000000000000, 0.00000000000000000000
37.00000000000000000000, 0.00000000000000000000, 4327.17938136615790000000, 4494.87168495785410000000, 4406.66655890962280000000, 5018.46141574416010000000, 4306.66656135494120000000, 4366.15373938746960000000, 4071.28195172623010000000, 4449.74348093317800000000, 4483.07681345140460000000, 4812.30757463143250000000, 4222.05117880867240000000, 4049.23067021417180000000, 4068.20502872454740000000, 4356.41014988214190000000, 0.00000000000000000000, 4.00000000000000000000, 4.00000000000000000000, 4.00000000000000000000, 4.00000000000000000000, 4.00000000000000000000, 3.00000000000000000000, 4.00000000000000000000, 4.00000000000000000000, 4.00000000000000000000, 4.00000000000000000000, 4.00000000000000000000, 4.00000000000000000000, 4.00000000000000000000, 4.00000000000000000000, 4.00000000000000000000, 4.00000000000000000000, 1676.00000000000000000000, 1685.00000000000000000000, 0.00000000000000000000
38.00000000000000000000, 0.00000000000000000000, 4338.97425287260740000000, 4506.15373596402330000000, 4417.94860991579210000000, 5032.82038975201160000000, 4313.84604835886690000000, 4356.92297038242210000000, 4066.66656722370640000000, 4444.61527593037320000000, 4484.10245445196600000000, 4825.64090763872350000000, 4230.25630681315940000000, 4055.89733671781730000000, 4077.43579772959490000000, 4363.58963688606760000000, 0.00000000000000000000, 4.00000000000000000000, 4.00000000000000000000, 4.00000000000000000000, 4.00000000000000000000, 4.00000000000000000000, 3.00000000000000000000, 4.00000000000000000000, 4.00000000000000000000, 4.00000000000000000000, 4.00000000000000000000, 4.00000000000000000000, 4.00000000000000000000, 4.00000000000000000000, 4.00000000000000000000, 4.00000000000000000000, 4.00000000000000000000, 1675.00000000000000000000, 1685.00000000000000000000, 0.00000000000000000000
39.00000000000000000000, 0.00000000000000000000, 4343.58963737513110000000, 4515.38450496907080000000, 4424.10245591915650000000, 5042.56397925733930000000, 4322.05117636335400000000, 4351.28194487933800000000, 4061.02554172062170000000, 4442.56399392925140000000, 4488.71783895448970000000, 4824.10244613788200000000, 4231.79476831400010000000, 4056.92297771837820000000, 4075.89733622875380000000, 4364.61527788662810000000, 0.00000000000000000000, 4.00000000000000000000, 4.00000000000000000000, 4.00000000000000000000, 4.00000000000000000000, 4.00000000000000000000, 3.00000000000000000000, 4.00000000000000000000, 4.00000000000000000000, 4.00000000000000000000, 4.00000000000000000000, 4.00000000000000000000, 4.00000000000000000000, 4.00000000000000000000, 4.00000000000000000000, 4.00000000000000000000, 4.00000000000000000000, 1676.00000000000000000000, 1686.00000000000000000000, 0.00000000000000000000
40.00000000000000000000, 0.00000000000000000000, 4331.79476586868170000000, 4507.69219746486490000000, 4414.87168691410900000000, 5027.69218474920760000000, 4321.53835586307380000000, 4359.48707288382410000000, 4071.79477222651030000000, 4454.35886543570180000000, 4491.79476195617190000000, 4810.76911313059100000000, 4219.99989680755060000000, 4051.28195221529360000000, 4064.61528522258460000000, 4355.38450888158060000000, 0.00000000000000000000, 4.00000000000000000000, 4.00000000000000000000, 4.00000000000000000000, 4.00000000000000000000, 4.00000000000000000000, 3.00000000000000000000, 4.00000000000000000000, 4.00000000000000000000, 4.00000000000000000000, 4.00000000000000000000, 4.00000000000000000000, 4.00000000000000000000, 4.00000000000000000000, 4.00000000000000000000, 4.00000000000000000000, 4.00000000000000000000, 1676.00000000000000000000, 1684.00000000000000000000, 0.00000000000000000000
41.00000000000000000000, 0.00000000000000000000, 4333.33322736952320000000, 4505.64091546374310000000, 4417.94860991579210000000, 5024.61526174752540000000, 4319.99989436223220000000, 4363.58963688606760000000, 4083.58964373295980000000, 4461.02553193934640000000, 4491.28194145589170000000, 4816.41013863367610000000, 4225.12810181035550000000, 4058.46143921921930000000, 4070.25631072566920000000, 4361.02553438466570000000, 0.00000000000000000000, 4.00000000000000000000, 4.00000000000000000000, 4.00000000000000000000, 4.00000000000000000000, 4.00000000000000000000, 3.00000000000000000000, 4.00000000000000000000, 4.00000000000000000000, 4.00000000000000000000, 4.00000000000000000000, 4.00000000000000000000, 4.00000000000000000000, 4.00000000000000000000, 4.00000000000000000000, 4.00000000000000000000, 4.00000000000000000000, 1674.00000000000000000000, 1687.00000000000000000000, 0.00000000000000000000
42.00000000000000000000, 0.00000000000000000000, 4344.61527837569250000000, 4509.74347946598660000000, 4425.64091741999800000000, 5035.38449225341360000000, 4320.51271486251240000000, 4359.99989338410430000000, 4083.07682323267950000000, 4458.97424993822550000000, 4492.30758245645210000000, 4827.17936913956420000000, 4235.38451181596340000000, 4065.12810572286480000000, 4078.46143873015580000000, 4370.25630338971310000000, 0.00000000000000000000, 4.00000000000000000000, 4.00000000000000000000, 4.00000000000000000000, 4.00000000000000000000, 4.00000000000000000000, 3.00000000000000000000, 4.00000000000000000000, 4.00000000000000000000, 4.00000000000000000000, 4.00000000000000000000, 4.00000000000000000000, 4.00000000000000000000, 4.00000000000000000000, 4.00000000000000000000, 4.00000000000000000000, 4.00000000000000000000, 1676.00000000000000000000, 1684.00000000000000000000, 0.00000000000000000000
43.00000000000000000000, 0.00000000000000000000, 4338.97425287260740000000, 4505.12809496346290000000, 4418.46143041607230000000, 5032.82038975201160000000, 4324.10245836447580000000, 4362.05117538522610000000, 4082.56400273239930000000, 4458.46142943794440000000, 4492.30758245645210000000, 4820.51270263591870000000, 4225.64092231063570000000, 4054.35887521697620000000, 4070.76913122594940000000, 4364.61527788662810000000, 0.00000000000000000000, 4.00000000000000000000, 4.00000000000000000000, 4.00000000000000000000, 4.00000000000000000000, 4.00000000000000000000, 3.00000000000000000000, 4.00000000000000000000, 4.00000000000000000000, 4.00000000000000000000, 4.00000000000000000000, 4.00000000000000000000, 4.00000000000000000000, 4.00000000000000000000, 4.00000000000000000000, 4.00000000000000000000, 4.00000000000000000000, 1674.00000000000000000000, 1683.00000000000000000000, 0.00000000000000000000
44.00000000000000000000, 0.00000000000000000000, 4326.15374036559750000000, 4494.87168495785410000000, 4411.79476391242680000000, 5022.05115924612260000000, 4325.12809936503620000000, 4367.17938038803090000000, 4088.20502823548350000000, 4461.53835243962750000000, 4492.82040295673230000000, 4809.74347213003060000000, 4214.87169180474670000000, 4043.58964471108720000000, 4059.48708021978020000000, 4357.43579088270230000000, 0.00000000000000000000, 4.00000000000000000000, 4.00000000000000000000, 4.00000000000000000000, 4.00000000000000000000, 4.00000000000000000000, 3.00000000000000000000, 4.00000000000000000000, 4.00000000000000000000, 4.00000000000000000000, 4.00000000000000000000, 4.00000000000000000000, 4.00000000000000000000, 4.00000000000000000000, 4.00000000000000000000, 4.00000000000000000000, 4.00000000000000000000, 1675.00000000000000000000, 1682.00000000000000000000, 0.00000000000000000000
45.00000000000000000000, 0.00000000000000000000, 4323.58963786419460000000, 4487.17937745364820000000, 4410.25630241158520000000, 5016.92295424331860000000, 4317.43579186083020000000, 4368.20502138859140000000, 4092.30759223772700000000, 4461.02553193934640000000, 4491.79476195617190000000, 4803.58962612666530000000, 4213.33323030390510000000, 4041.53836270996590000000, 4051.28195221529360000000, 4349.23066287821620000000, 0.00000000000000000000, 4.00000000000000000000, 4.00000000000000000000, 4.00000000000000000000, 4.00000000000000000000, 4.00000000000000000000, 3.00000000000000000000, 4.00000000000000000000, 4.00000000000000000000, 4.00000000000000000000, 4.00000000000000000000, 4.00000000000000000000, 4.00000000000000000000, 4.00000000000000000000, 4.00000000000000000000, 4.00000000000000000000, 4.00000000000000000000, 1675.00000000000000000000, 1681.00000000000000000000, 0.00000000000000000000
46.00000000000000000000, 0.00000000000000000000, 4325.12809936503620000000, 4486.66655695336790000000, 4406.66655890962280000000, 5014.87167224219680000000, 4309.23066385634320000000, 4358.46143188326370000000, 4088.71784873576420000000, 4457.43578843738400000000, 4488.71783895448970000000, 4802.05116462582370000000, 4211.79476880306450000000, 4041.02554220968520000000, 4047.69220871333070000000, 4344.10245787541130000000, 0.00000000000000000000, 4.00000000000000000000, 4.00000000000000000000, 4.00000000000000000000, 4.00000000000000000000, 4.00000000000000000000, 3.00000000000000000000, 4.00000000000000000000, 4.00000000000000000000, 4.00000000000000000000, 4.00000000000000000000, 4.00000000000000000000, 4.00000000000000000000, 4.00000000000000000000, 4.00000000000000000000, 4.00000000000000000000, 4.00000000000000000000, 1675.00000000000000000000, 1681.00000000000000000000, 0.00000000000000000000
47.00000000000000000000, 0.00000000000000000000, 4331.79476586868170000000, 4497.94860795953720000000, 4412.30758441270700000000, 5022.05115924612260000000, 4311.28194585746500000000, 4351.28194487933800000000, 4087.17938723492310000000, 4459.99989093878590000000, 4495.38450545813430000000, 4812.30757463143250000000, 4223.07681980923370000000, 4051.79477271557430000000, 4065.12810572286480000000, 4358.97425238354390000000, 0.00000000000000000000, 4.00000000000000000000, 4.00000000000000000000, 4.00000000000000000000, 4.00000000000000000000, 4.00000000000000000000, 3.00000000000000000000, 4.00000000000000000000, 4.00000000000000000000, 4.00000000000000000000, 4.00000000000000000000, 4.00000000000000000000, 4.00000000000000000000, 4.00000000000000000000, 4.00000000000000000000, 4.00000000000000000000, 4.00000000000000000000, 1676.00000000000000000000, 1680.00000000000000000000, 0.00000000000000000000
48.00000000000000000000, 0.00000000000000000000, 4342.56399637457070000000, 4507.69219746486490000000, 4420.51271241719410000000, 5031.28192825117000000000, 4314.87168935942830000000, 4351.79476537961820000000, 4091.79477173744680000000, 4463.58963444074930000000, 4501.53835146149960000000, 4826.15372813900380000000, 4233.33322981484160000000, 4063.07682372174350000000, 4080.51272073127760000000, 4369.23066238915180000000, 0.00000000000000000000, 4.00000000000000000000, 4.00000000000000000000, 4.00000000000000000000, 4.00000000000000000000, 4.00000000000000000000, 3.00000000000000000000, 4.00000000000000000000, 4.00000000000000000000, 4.00000000000000000000, 4.00000000000000000000, 4.00000000000000000000, 4.00000000000000000000, 4.00000000000000000000, 4.00000000000000000000, 4.00000000000000000000, 4.00000000000000000000, 1676.00000000000000000000, 1681.00000000000000000000, 0.00000000000000000000
49.00000000000000000000, 0.00000000000000000000, 4339.48707337288760000000, 4505.64091546374310000000, 4413.33322541326830000000, 5023.58962074696410000000, 4312.30758685802630000000, 4350.25630387877660000000, 4083.07682323267950000000, 4454.87168593598200000000, 4492.30758245645210000000, 4819.99988213563850000000, 4223.58964030951390000000, 4055.38451621753710000000, 4069.23066972510830000000, 4357.43579088270230000000, 0.00000000000000000000, 4.00000000000000000000, 4.00000000000000000000, 4.00000000000000000000, 4.00000000000000000000, 4.00000000000000000000, 3.00000000000000000000, 4.00000000000000000000, 4.00000000000000000000, 4.00000000000000000000, 4.00000000000000000000, 4.00000000000000000000, 4.00000000000000000000, 4.00000000000000000000, 4.00000000000000000000, 4.00000000000000000000, 4.00000000000000000000, 1676.00000000000000000000, 1680.00000000000000000000, 0.00000000000000000000
50.00000000000000000000, 0.00000000000000000000, 4332.30758636896190000000, 4503.07681296234110000000, 4410.76912291186640000000, 5021.02551824556210000000, 4312.30758685802630000000, 4348.71784237793510000000, 4067.69220822426720000000, 4446.66655793149490000000, 4486.15373645308680000000, 4813.84603613227410000000, 4218.46143530671000000000, 4050.76913171501340000000, 4061.02554172062170000000, 4355.89732938186170000000, 0.00000000000000000000, 4.00000000000000000000, 4.00000000000000000000, 4.00000000000000000000, 4.00000000000000000000, 4.00000000000000000000, 3.00000000000000000000, 4.00000000000000000000, 4.00000000000000000000, 4.00000000000000000000, 4.00000000000000000000, 4.00000000000000000000, 4.00000000000000000000, 4.00000000000000000000, 4.00000000000000000000, 4.00000000000000000000, 4.00000000000000000000, 1677.00000000000000000000, 1682.00000000000000000000, 0.00000000000000000000
51.00000000000000000000, 0.00000000000000000000, 4337.94861187204700000000, 4507.17937696458470000000, 4421.53835341775450000000, 5035.38449225341360000000, 4317.94861236111050000000, 4356.92297038242210000000, 4073.84605422763210000000, 4454.87168593598200000000, 4494.87168495785410000000, 4825.12808713844240000000, 4231.28194781371990000000, 4061.02554172062170000000, 4074.87169522819290000000, 4368.20502138859140000000, 0.00000000000000000000, 4.00000000000000000000, 4.00000000000000000000, 4.00000000000000000000, 4.00000000000000000000, 4.00000000000000000000, 3.00000000000000000000, 4.00000000000000000000, 4.00000000000000000000, 4.00000000000000000000, 4.00000000000000000000, 4.00000000000000000000, 4.00000000000000000000, 4.00000000000000000000, 4.00000000000000000000, 4.00000000000000000000, 4.00000000000000000000, 1678.00000000000000000000, 1681.00000000000000000000, 0.00000000000000000000
52.00000000000000000000, 0.00000000000000000000, 4345.64091937625290000000, 4508.20501796514510000000, 4426.15373792027820000000, 5037.94859475481550000000, 4322.56399686363420000000, 4366.66655988774980000000, 4091.28195123716610000000, 4464.10245494102950000000, 4494.87168495785410000000, 4832.30757414236900000000, 4235.89733231624360000000, 4065.64092622314550000000, 4079.99990023099690000000, 4371.79476489055470000000, 0.00000000000000000000, 4.00000000000000000000, 4.00000000000000000000, 4.00000000000000000000, 4.00000000000000000000, 4.00000000000000000000, 3.00000000000000000000, 4.00000000000000000000, 4.00000000000000000000, 4.00000000000000000000, 4.00000000000000000000, 4.00000000000000000000, 4.00000000000000000000, 4.00000000000000000000, 4.00000000000000000000, 4.00000000000000000000, 4.00000000000000000000, 1679.00000000000000000000, 1682.00000000000000000000, 0.00000000000000000000
53.00000000000000000000, 0.00000000000000000000, 4342.05117587429050000000, 4506.15373596402330000000, 4423.07681491859600000000, 5025.64090274808590000000, 4322.56399686363420000000, 4359.99989338410430000000, 4091.79477173744680000000, 4458.97424993822550000000, 4485.64091595280660000000, 4823.58962563760180000000, 4229.74348631287920000000, 4063.58964422202370000000, 4074.35887472791230000000, 4370.25630338971310000000, 0.00000000000000000000, 4.00000000000000000000, 4.00000000000000000000, 4.00000000000000000000, 4.00000000000000000000, 4.00000000000000000000, 3.00000000000000000000, 4.00000000000000000000, 4.00000000000000000000, 4.00000000000000000000, 4.00000000000000000000, 4.00000000000000000000, 4.00000000000000000000, 4.00000000000000000000, 4.00000000000000000000, 4.00000000000000000000, 4.00000000000000000000, 1679.00000000000000000000, 1682.00000000000000000000, 0.00000000000000000000
54.00000000000000000000, 0.00000000000000000000, 4341.02553487372920000000, 4504.10245396290160000000, 4422.05117391803470000000, 5023.58962074696410000000, 4316.41015086026890000000, 4352.82040638017860000000, 4090.25631023660530000000, 4456.41014743682260000000, 4493.33322345701340000000, 4814.87167713283450000000, 4233.33322981484160000000, 4068.20502872454740000000, 4076.41015672903400000000, 4370.76912388999340000000, 0.00000000000000000000, 4.00000000000000000000, 4.00000000000000000000, 4.00000000000000000000, 4.00000000000000000000, 4.00000000000000000000, 3.00000000000000000000, 4.00000000000000000000, 4.00000000000000000000, 4.00000000000000000000, 4.00000000000000000000, 4.00000000000000000000, 4.00000000000000000000, 4.00000000000000000000, 4.00000000000000000000, 4.00000000000000000000, 4.00000000000000000000, 1679.00000000000000000000, 1682.00000000000000000000, 0.00000000000000000000
55.00000000000000000000, 0.00000000000000000000, 4341.53835537400940000000, 4494.87168495785410000000, 4418.97425091635250000000, 5026.66654374864630000000, 4308.20502285578280000000, 4358.97425238354390000000, 4105.64092524501760000000, 4461.02553193934640000000, 4500.51271046093920000000, 4813.84603613227410000000, 4231.79476831400010000000, 4066.66656722370640000000, 4071.28195172623010000000, 4366.66655988774980000000, 0.00000000000000000000, 4.00000000000000000000, 4.00000000000000000000, 4.00000000000000000000, 4.00000000000000000000, 4.00000000000000000000, 3.00000000000000000000, 4.00000000000000000000, 4.00000000000000000000, 4.00000000000000000000, 4.00000000000000000000, 4.00000000000000000000, 4.00000000000000000000, 4.00000000000000000000, 4.00000000000000000000, 4.00000000000000000000, 4.00000000000000000000, 1679.00000000000000000000, 1679.00000000000000000000, 0.00000000000000000000
56.00000000000000000000, 0.00000000000000000000, 4333.33322736952320000000, 4486.15373645308680000000, 4412.30758441270700000000, 5018.46141574416010000000, 4307.69220235550260000000, 4351.79476537961820000000, 4104.10246374417690000000, 4453.33322443514040000000, 4482.05117245084420000000, 4814.35885663255430000000, 4221.02553780811190000000, 4056.41015721809800000000, 4059.48708021978020000000, 4360.51271388438540000000, 0.00000000000000000000, 4.00000000000000000000, 4.00000000000000000000, 4.00000000000000000000, 4.00000000000000000000, 4.00000000000000000000, 3.00000000000000000000, 4.00000000000000000000, 4.00000000000000000000, 4.00000000000000000000, 4.00000000000000000000, 4.00000000000000000000, 4.00000000000000000000, 4.00000000000000000000, 4.00000000000000000000, 4.00000000000000000000, 4.00000000000000000000, 1679.00000000000000000000, 1679.00000000000000000000, 0.00000000000000000000
57.00000000000000000000, 0.00000000000000000000, 4328.71784286699950000000, 4490.25630045533030000000, 4411.79476391242680000000, 5016.92295424331860000000, 4316.41015086026890000000, 4338.46143237232720000000, 4084.10246423324040000000, 4445.12809643065430000000, 4471.79476244523540000000, 4822.56398463704040000000, 4225.64092231063570000000, 4057.43579821865890000000, 4065.12810572286480000000, 4359.99989338410430000000, 0.00000000000000000000, 4.00000000000000000000, 4.00000000000000000000, 4.00000000000000000000, 4.00000000000000000000, 4.00000000000000000000, 3.00000000000000000000, 4.00000000000000000000, 4.00000000000000000000, 4.00000000000000000000, 4.00000000000000000000, 4.00000000000000000000, 4.00000000000000000000, 4.00000000000000000000, 4.00000000000000000000, 4.00000000000000000000, 4.00000000000000000000, 1677.00000000000000000000, 1679.00000000000000000000, 0.00000000000000000000
58.00000000000000000000, 0.00000000000000000000, 4331.28194536840150000000, 4491.79476195617190000000, 4413.33322541326830000000, 5020.51269774528190000000, 4317.94861236111050000000, 4344.61527837569250000000, 4081.02554123155780000000, 4447.69219893205630000000, 4487.69219795392840000000, 4822.56398463704040000000, 4230.76912731343960000000, 4058.97425971950000000000, 4074.35887472791230000000, 4361.02553438466570000000, 0.00000000000000000000, 4.00000000000000000000, 4.00000000000000000000, 4.00000000000000000000, 4.00000000000000000000, 4.00000000000000000000, 3.00000000000000000000, 4.00000000000000000000, 4.00000000000000000000, 4.00000000000000000000, 4.00000000000000000000, 4.00000000000000000000, 4.00000000000000000000, 4.00000000000000000000, 4.00000000000000000000, 4.00000000000000000000, 4.00000000000000000000, 1676.00000000000000000000, 1682.00000000000000000000, 0.00000000000000000000
59.00000000000000000000, 0.00000000000000000000, 4332.30758636896190000000, 4488.20501845420860000000, 4410.76912291186640000000, 5014.87167224219680000000, 4309.23066385634320000000, 4347.17938087709440000000, 4080.51272073127760000000, 4444.61527593037320000000, 4491.28194145589170000000, 4814.35885663255430000000, 4221.53835830839220000000, 4053.33323421641530000000, 4069.23066972510830000000, 4359.48707288382410000000, 0.00000000000000000000, 4.00000000000000000000, 4.00000000000000000000, 4.00000000000000000000, 4.00000000000000000000, 4.00000000000000000000, 3.00000000000000000000, 4.00000000000000000000, 4.00000000000000000000, 4.00000000000000000000, 4.00000000000000000000, 4.00000000000000000000, 4.00000000000000000000, 4.00000000000000000000, 4.00000000000000000000, 4.00000000000000000000, 4.00000000000000000000, 1675.00000000000000000000, 1681.00000000000000000000, 0.00000000000000000000
60.00000000000000000000, 0.00000000000000000000, 4338.97425287260740000000, 4498.97424896009760000000, 4417.94860991579210000000, 5021.53833874584230000000, 4308.71784335606300000000, 4338.97425287260740000000, 4071.79477222651030000000, 4443.07681442953250000000, 4484.61527495224620000000, 4823.07680513732160000000, 4228.71784531231790000000, 4062.05118272118260000000, 4076.92297722931470000000, 4365.64091888718940000000, 0.00000000000000000000, 4.00000000000000000000, 4.00000000000000000000, 4.00000000000000000000, 4.00000000000000000000, 4.00000000000000000000, 3.00000000000000000000, 4.00000000000000000000, 4.00000000000000000000, 4.00000000000000000000, 4.00000000000000000000, 4.00000000000000000000, 4.00000000000000000000, 4.00000000000000000000, 4.00000000000000000000, 4.00000000000000000000, 4.00000000000000000000, 1671.00000000000000000000, 1684.00000000000000000000, 0.00000000000000000000
61.00000000000000000000, 0.00000000000000000000, 4351.28194487933800000000, 4512.30758196738860000000, 4431.28194292308220000000, 5037.43577425453530000000, 4316.92297136055000000000, 4353.33322688045880000000, 4083.07682323267950000000, 4456.41014743682260000000, 4499.48706946037780000000, 4837.94859964545320000000, 4249.23066532353460000000, 4079.99990023099690000000, 4094.87169473912900000000, 4376.92296989335860000000, 0.00000000000000000000, 4.00000000000000000000, 4.00000000000000000000, 4.00000000000000000000, 4.00000000000000000000, 4.00000000000000000000, 3.00000000000000000000, 4.00000000000000000000, 4.00000000000000000000, 4.00000000000000000000, 4.00000000000000000000, 4.00000000000000000000, 4.00000000000000000000, 4.00000000000000000000, 4.00000000000000000000, 4.00000000000000000000, 4.00000000000000000000, 1671.00000000000000000000, 1684.00000000000000000000, 0.00000000000000000000
62.00000000000000000000, 0.00000000000000000000, 4348.20502187765490000000, 4510.76912046654710000000, 4430.25630192252170000000, 5033.84603075257290000000, 4317.43579186083020000000, 4374.87168789223690000000, 4099.99989974193340000000, 4465.64091644187010000000, 4509.23065896570640000000, 4828.20501014012550000000, 4244.10246032073060000000, 4077.94861822987510000000, 4091.79477173744680000000, 4374.87168789223690000000, 0.00000000000000000000, 4.00000000000000000000, 4.00000000000000000000, 4.00000000000000000000, 4.00000000000000000000, 4.00000000000000000000, 3.00000000000000000000, 4.00000000000000000000, 4.00000000000000000000, 4.00000000000000000000, 4.00000000000000000000, 4.00000000000000000000, 4.00000000000000000000, 4.00000000000000000000, 4.00000000000000000000, 4.00000000000000000000, 4.00000000000000000000, 1669.00000000000000000000, 1685.00000000000000000000, 0.00000000000000000000
63.00000000000000000000, 0.00000000000000000000, 4333.33322736952320000000, 4503.07681296234110000000, 4417.94860991579210000000, 5021.02551824556210000000, 4314.35886885914720000000, 4364.10245738634790000000, 4087.69220773520330000000, 4456.92296793710370000000, 4493.33322345701340000000, 4810.76911313059100000000, 4227.17938381147630000000, 4063.07682372174350000000, 4079.48707973071670000000, 4364.10245738634790000000, 0.00000000000000000000, 4.00000000000000000000, 4.00000000000000000000, 4.00000000000000000000, 4.00000000000000000000, 4.00000000000000000000, 3.00000000000000000000, 4.00000000000000000000, 4.00000000000000000000, 4.00000000000000000000, 4.00000000000000000000, 4.00000000000000000000, 4.00000000000000000000, 4.00000000000000000000, 4.00000000000000000000, 4.00000000000000000000, 4.00000000000000000000, 1670.00000000000000000000, 1686.00000000000000000000, 0.00000000000000000000
64.00000000000000000000, 0.00000000000000000000, 4332.30758636896190000000, 4497.43578745925610000000, 4415.38450741439010000000, 5021.53833874584230000000, 4315.38450985970850000000, 4349.74348337849640000000, 4074.87169522819290000000, 4454.35886543570180000000, 4488.71783895448970000000, 4813.84603613227410000000, 4230.76912731343960000000, 4059.99990072006090000000, 4078.97425923043600000000, 4361.53835488494590000000, 408.00000000000000000000, 4.00000000000000000000, 4.00000000000000000000, 4.00000000000000000000, 4.00000000000000000000, 4.00000000000000000000, 3.00000000000000000000, 4.00000000000000000000, 4.00000000000000000000, 4.00000000000000000000, 4.00000000000000000000, 4.00000000000000000000, 4.00000000000000000000, 4.00000000000000000000, 4.00000000000000000000, 4.00000000000000000000, 4.00000000000000000000, 1670.00000000000000000000, 1683.00000000000000000000, 0.00000000000000000000
65.00000000000000000000, 0.00000000000000000000, 4334.35886837008370000000, 4491.28194145589170000000, 4419.48707141663270000000, 5022.05115924612260000000, 4309.74348435662340000000, 4359.99989338410430000000, 4087.69220773520330000000, 4461.53835243962750000000, 4497.94860795953720000000, 4818.46142063479780000000, 4235.38451181596340000000, 4061.53836222090190000000, 4076.92297722931470000000, 4360.51271388438540000000, 442.00000000000000000000, 4.00000000000000000000, 4.00000000000000000000, 4.00000000000000000000, 4.00000000000000000000, 4.00000000000000000000, 3.00000000000000000000, 4.00000000000000000000, 4.00000000000000000000, 4.00000000000000000000, 4.00000000000000000000, 4.00000000000000000000, 4.00000000000000000000, 4.00000000000000000000, 4.00000000000000000000, 4.00000000000000000000, 4.00000000000000000000, 1671.00000000000000000000, 1683.00000000000000000000, 0.00000000000000000000
66.00000000000000000000, 0.00000000000000000000, 4328.71784286699950000000, 4487.69219795392840000000, 4415.38450741439010000000, 5016.92295424331860000000, 4297.43579234989370000000, 4363.58963688606760000000, 4091.28195123716610000000, 4458.46142943794440000000, 4494.87168495785410000000, 4807.69219012890880000000, 4226.15374281091590000000, 4058.97425971950000000000, 4067.69220822426720000000, 4355.89732938186170000000, 415.00000000000000000000, 4.00000000000000000000, 4.00000000000000000000, 4.00000000000000000000, 4.00000000000000000000, 4.00000000000000000000, 3.00000000000000000000, 4.00000000000000000000, 4.00000000000000000000, 4.00000000000000000000, 4.00000000000000000000, 4.00000000000000000000, 4.00000000000000000000, 4.00000000000000000000, 4.00000000000000000000, 4.00000000000000000000, 4.00000000000000000000, 1671.00000000000000000000, 1683.00000000000000000000, 0.00000000000000000000
67.00000000000000000000, 0.00000000000000000000, 4329.74348386755990000000, 4488.71783895448970000000, 4415.38450741439010000000, 5018.46141574416010000000, 4294.35886934821160000000, 4349.23066287821620000000, 4071.28195172623010000000, 4453.33322443514040000000, 4486.66655695336790000000, 4798.46142112386130000000, 4221.53835830839220000000, 4058.46143921921930000000, 4067.17938772398660000000, 4358.46143188326370000000, 453.00000000000000000000, 4.00000000000000000000, 4.00000000000000000000, 4.00000000000000000000, 4.00000000000000000000, 4.00000000000000000000, 3.00000000000000000000, 4.00000000000000000000, 4.00000000000000000000, 4.00000000000000000000, 4.00000000000000000000, 4.00000000000000000000, 4.00000000000000000000, 4.00000000000000000000, 4.00000000000000000000, 4.00000000000000000000, 4.00000000000000000000, 1671.00000000000000000000, 1683.00000000000000000000, 0.00000000000000000000
68.00000000000000000000, 0.00000000000000000000, 4336.92297087148560000000, 4490.25630045533030000000, 4423.07681491859600000000, 5024.10244124724430000000, 4298.97425385073530000000, 4350.76912437905680000000, 4068.20502872454740000000, 4454.35886543570180000000, 4490.25630045533030000000, 4808.20501062918900000000, 4228.71784531231790000000, 4064.61528522258460000000, 4074.87169522819290000000, 4365.64091888718940000000, 468.00000000000000000000, 4.00000000000000000000, 4.00000000000000000000, 4.00000000000000000000, 4.00000000000000000000, 4.00000000000000000000, 3.00000000000000000000, 4.00000000000000000000, 4.00000000000000000000, 4.00000000000000000000, 4.00000000000000000000, 4.00000000000000000000, 4.00000000000000000000, 4.00000000000000000000, 4.00000000000000000000, 4.00000000000000000000, 4.00000000000000000000, 1672.00000000000000000000, 1683.00000000000000000000, 0.00000000000000000000
69.00000000000000000000, 0.00000000000000000000, 4337.43579137176680000000, 4492.30758245645210000000, 4423.58963541887620000000, 5025.12808224780570000000, 4299.99989485129570000000, 4361.53835488494590000000, 4084.10246423324040000000, 4452.82040393486020000000, 4494.35886445757390000000, 4816.92295913395630000000, 4233.33322981484160000000, 4071.28195172623010000000, 4078.46143873015580000000, 4367.17938038803090000000, 330.00000000000000000000, 4.00000000000000000000, 4.00000000000000000000, 4.00000000000000000000, 4.00000000000000000000, 4.00000000000000000000, 3.00000000000000000000, 4.00000000000000000000, 4.00000000000000000000, 4.00000000000000000000, 4.00000000000000000000, 4.00000000000000000000, 4.00000000000000000000, 4.00000000000000000000, 4.00000000000000000000, 4.00000000000000000000, 4.00000000000000000000, 1673.00000000000000000000, 1685.00000000000000000000, 0.00000000000000000000
70.00000000000000000000, 0.00000000000000000000, 4333.84604786980340000000, 4492.30758245645210000000, 4416.92296891523070000000, 5022.05115924612260000000, 4299.48707435101550000000, 4355.38450888158060000000, 4080.51272073127760000000, 4444.61527593037320000000, 4491.79476195617190000000, 4802.56398512610490000000, 4230.76912731343960000000, 4068.20502872454740000000, 4077.94861822987510000000, 4365.64091888718940000000, 452.00000000000000000000, 4.00000000000000000000, 4.00000000000000000000, 4.00000000000000000000, 4.00000000000000000000, 4.00000000000000000000, 3.00000000000000000000, 4.00000000000000000000, 4.00000000000000000000, 4.00000000000000000000, 4.00000000000000000000, 4.00000000000000000000, 4.00000000000000000000, 4.00000000000000000000, 4.00000000000000000000, 4.00000000000000000000, 4.00000000000000000000, 1675.00000000000000000000, 1683.00000000000000000000, 0.00000000000000000000
71.00000000000000000000, 0.00000000000000000000, 4333.33322736952320000000, 4492.30758245645210000000, 4417.43578941551100000000, 5022.05115924612260000000, 4299.48707435101550000000, 4352.30758587989840000000, 4073.33323372735140000000, 4442.05117342897120000000, 4487.69219795392840000000, 4795.89731862245940000000, 4229.74348631287920000000, 4065.12810572286480000000, 4078.46143873015580000000, 4366.66655988774980000000, 422.00000000000000000000, 4.00000000000000000000, 4.00000000000000000000, 4.00000000000000000000, 4.00000000000000000000, 4.00000000000000000000, 3.00000000000000000000, 4.00000000000000000000, 4.00000000000000000000, 4.00000000000000000000, 4.00000000000000000000, 4.00000000000000000000, 4.00000000000000000000, 4.00000000000000000000, 4.00000000000000000000, 4.00000000000000000000, 4.00000000000000000000, 1675.00000000000000000000, 1684.00000000000000000000, 0.00000000000000000000
72.00000000000000000000, 0.00000000000000000000, 4335.38450937064500000000, 4492.82040295673230000000, 4418.97425091635250000000, 5023.07680024668390000000, 4295.89733084905220000000, 4359.99989338410430000000, 4087.17938723492310000000, 4445.64091693093450000000, 4490.25630045533030000000, 4806.66654912834750000000, 4231.28194781371990000000, 4067.17938772398660000000, 4081.02554123155780000000, 4369.74348288943290000000, 369.00000000000000000000, 4.00000000000000000000, 4.00000000000000000000, 4.00000000000000000000, 4.00000000000000000000, 4.00000000000000000000, 3.00000000000000000000, 4.00000000000000000000, 4.00000000000000000000, 4.00000000000000000000, 4.00000000000000000000, 4.00000000000000000000, 4.00000000000000000000, 4.00000000000000000000, 4.00000000000000000000, 4.00000000000000000000, 4.00000000000000000000, 1677.00000000000000000000, 1683.00000000000000000000, 0.00000000000000000000
73.00000000000000000000, 0.00000000000000000000, 4334.35886837008370000000, 4490.76912095561060000000, 4416.92296891523070000000, 5021.02551824556210000000, 4293.33322834765020000000, 4358.46143188326370000000, 4092.30759223772700000000, 4445.64091693093450000000, 4492.30758245645210000000, 4806.66654912834750000000, 4233.33322981484160000000, 4069.23066972510830000000, 4079.99990023099690000000, 4370.76912388999340000000, 413.00000000000000000000, 4.00000000000000000000, 4.00000000000000000000, 4.00000000000000000000, 4.00000000000000000000, 4.00000000000000000000, 3.00000000000000000000, 4.00000000000000000000, 4.00000000000000000000, 4.00000000000000000000, 4.00000000000000000000, 4.00000000000000000000, 4.00000000000000000000, 4.00000000000000000000, 4.00000000000000000000, 4.00000000000000000000, 4.00000000000000000000, 1676.00000000000000000000, 1683.00000000000000000000, 0.00000000000000000000
74.00000000000000000000, 0.00000000000000000000, 4330.25630436784010000000, 4489.74347995505010000000, 4412.82040491298720000000, 5015.38449274247710000000, 4294.35886934821160000000, 4359.48707288382410000000, 4084.10246423324040000000, 4444.61527593037320000000, 4488.71783895448970000000, 4794.87167762189800000000, 4229.74348631287920000000, 4066.15374672342570000000, 4069.74349022538850000000, 4366.15373938746960000000, 444.00000000000000000000, 4.00000000000000000000, 4.00000000000000000000, 4.00000000000000000000, 4.00000000000000000000, 4.00000000000000000000, 3.00000000000000000000, 4.00000000000000000000, 4.00000000000000000000, 4.00000000000000000000, 4.00000000000000000000, 4.00000000000000000000, 4.00000000000000000000, 4.00000000000000000000, 4.00000000000000000000, 4.00000000000000000000, 4.00000000000000000000, 1678.00000000000000000000, 1683.00000000000000000000, 0.00000000000000000000
75.00000000000000000000, 0.00000000000000000000, 4327.17938136615790000000, 4484.61527495224620000000, 4409.74348191130500000000, 5007.17936473799090000000, 4291.79476684680960000000, 4366.15373938746960000000, 4085.64092573408150000000, 4446.15373743121470000000, 4486.66655695336790000000, 4790.25629311937430000000, 4216.92297380586840000000, 4058.97425971950000000000, 4058.97425971950000000000, 4356.92297038242210000000, 399.00000000000000000000, 4.00000000000000000000, 4.00000000000000000000, 4.00000000000000000000, 4.00000000000000000000, 4.00000000000000000000, 3.00000000000000000000, 4.00000000000000000000, 4.00000000000000000000, 4.00000000000000000000, 4.00000000000000000000, 4.00000000000000000000, 4.00000000000000000000, 4.00000000000000000000, 4.00000000000000000000, 4.00000000000000000000, 4.00000000000000000000, 1678.00000000000000000000, 1682.00000000000000000000, 0.00000000000000000000
76.00000000000000000000, 0.00000000000000000000, 4334.87168887036390000000, 4487.17937745364820000000, 4417.43578941551100000000, 5012.30756974079490000000, 4292.82040784737000000000, 4361.53835488494590000000, 4090.25631023660530000000, 4454.87168593598200000000, 4492.82040295673230000000, 4802.05116462582370000000, 4221.53835830839220000000, 4067.17938772398660000000, 4071.79477222651030000000, 4365.64091888718940000000, 413.00000000000000000000, 4.00000000000000000000, 4.00000000000000000000, 4.00000000000000000000, 4.00000000000000000000, 4.00000000000000000000, 3.00000000000000000000, 4.00000000000000000000, 4.00000000000000000000, 4.00000000000000000000, 4.00000000000000000000, 4.00000000000000000000, 4.00000000000000000000, 4.00000000000000000000, 4.00000000000000000000, 4.00000000000000000000, 4.00000000000000000000, 1678.00000000000000000000, 1684.00000000000000000000, 0.00000000000000000000
77.00000000000000000000, 0.00000000000000000000, 4346.15373987653310000000, 4499.99988996065800000000, 4432.30758392364350000000, 5027.17936424892740000000, 4303.58963835325900000000, 4355.89732938186170000000, 4089.74348973632500000000, 4463.07681394046810000000, 4497.43578745925610000000, 4817.43577963423650000000, 4244.10246032073060000000, 4088.71784873576420000000, 4092.30759223772700000000, 4387.17937989896650000000, 396.00000000000000000000, 4.00000000000000000000, 4.00000000000000000000, 4.00000000000000000000, 4.00000000000000000000, 4.00000000000000000000, 3.00000000000000000000, 4.00000000000000000000, 4.00000000000000000000, 4.00000000000000000000, 4.00000000000000000000, 4.00000000000000000000, 4.00000000000000000000, 4.00000000000000000000, 4.00000000000000000000, 4.00000000000000000000, 4.00000000000000000000, 1678.00000000000000000000, 1684.00000000000000000000, 0.00000000000000000000
78.00000000000000000000, 0.00000000000000000000, 4344.10245787541130000000, 4499.99988996065800000000, 4431.28194292308220000000, 5027.17936424892740000000, 4306.66656135494120000000, 4360.51271388438540000000, 4090.76913073688590000000, 4462.56399344018790000000, 4492.82040295673230000000, 4816.92295913395630000000, 4245.64092182157130000000, 4089.23066923604440000000, 4091.28195123716610000000, 4390.25630290064960000000, 444.00000000000000000000, 4.00000000000000000000, 4.00000000000000000000, 4.00000000000000000000, 4.00000000000000000000, 4.00000000000000000000, 3.00000000000000000000, 4.00000000000000000000, 4.00000000000000000000, 4.00000000000000000000, 4.00000000000000000000, 4.00000000000000000000, 4.00000000000000000000, 4.00000000000000000000, 4.00000000000000000000, 4.00000000000000000000, 4.00000000000000000000, 1677.00000000000000000000, 1683.00000000000000000000, 0.00000000000000000000
79.00000000000000000000, 0.00000000000000000000, 4340.51271437344890000000, 4492.30758245645210000000, 4425.64091741999800000000, 5019.99987724500170000000, 4299.48707435101550000000, 4363.58963688606760000000, 4087.17938723492310000000, 4456.41014743682260000000, 4489.74347995505010000000, 4802.05116462582370000000, 4233.84605031512180000000, 4073.33323372735140000000, 4085.12810523380130000000, 4383.07681589672300000000, 399.00000000000000000000, 4.00000000000000000000, 4.00000000000000000000, 4.00000000000000000000, 4.00000000000000000000, 4.00000000000000000000, 3.00000000000000000000, 4.00000000000000000000, 4.00000000000000000000, 4.00000000000000000000, 4.00000000000000000000, 4.00000000000000000000, 4.00000000000000000000, 4.00000000000000000000, 4.00000000000000000000, 4.00000000000000000000, 4.00000000000000000000, 1677.00000000000000000000, 1684.00000000000000000000, 0.00000000000000000000
80.00000000000000000000, 0.00000000000000000000, 4343.07681687485090000000, 4493.84604395729370000000, 4429.74348142224150000000, 5023.07680024668390000000, 4300.51271535157590000000, 4361.02553438466570000000, 4078.97425923043600000000, 4447.69219893205630000000, 4487.17937745364820000000, 4795.38449812217820000000, 4234.35887081540300000000, 4071.28195172623010000000, 4086.66656673464240000000, 4383.58963639700410000000, 413.00000000000000000000, 4.00000000000000000000, 4.00000000000000000000, 4.00000000000000000000, 4.00000000000000000000, 4.00000000000000000000, 3.00000000000000000000, 4.00000000000000000000, 4.00000000000000000000, 4.00000000000000000000, 4.00000000000000000000, 4.00000000000000000000, 4.00000000000000000000, 4.00000000000000000000, 4.00000000000000000000, 4.00000000000000000000, 4.00000000000000000000, 1676.00000000000000000000, 1684.00000000000000000000, 0.00000000000000000000
81.00000000000000000000, 0.00000000000000000000, 4335.89732987092520000000, 4492.82040295673230000000, 4424.61527641943760000000, 5016.41013374303840000000, 4303.07681785297880000000, 4355.89732938186170000000, 4078.97425923043600000000, 4439.48707092756920000000, 4475.89732644747890000000, 4796.41013912273960000000, 4232.82040931456140000000, 4069.74349022538850000000, 4078.46143873015580000000, 4374.87168789223690000000, 396.00000000000000000000, 4.00000000000000000000, 4.00000000000000000000, 4.00000000000000000000, 4.00000000000000000000, 4.00000000000000000000, 3.00000000000000000000, 4.00000000000000000000, 4.00000000000000000000, 4.00000000000000000000, 4.00000000000000000000, 4.00000000000000000000, 4.00000000000000000000, 4.00000000000000000000, 4.00000000000000000000, 4.00000000000000000000, 4.00000000000000000000, 1676.00000000000000000000, 1682.00000000000000000000, 0.00000000000000000000
82.00000000000000000000, 0.00000000000000000000, 4327.69220186643820000000, 4485.12809545252640000000, 4414.87168691410900000000, 5008.20500573855130000000, 4297.94861285017400000000, 4355.38450888158060000000, 4084.61528473352060000000, 4440.51271192813060000000, 4473.33322394607690000000, 4793.33321612105740000000, 4225.64092231063570000000, 4061.02554172062170000000, 4068.20502872454740000000, 4361.02553438466570000000, 444.00000000000000000000, 4.00000000000000000000, 4.00000000000000000000, 4.00000000000000000000, 4.00000000000000000000, 4.00000000000000000000, 3.00000000000000000000, 4.00000000000000000000, 4.00000000000000000000, 4.00000000000000000000, 4.00000000000000000000, 4.00000000000000000000, 4.00000000000000000000, 4.00000000000000000000, 4.00000000000000000000, 4.00000000000000000000, 4.00000000000000000000, 1674.00000000000000000000, 1683.00000000000000000000, 0.00000000000000000000
83.00000000000000000000, 0.00000000000000000000, 4336.41015037120540000000, 4486.66655695336790000000, 4420.51271241719410000000, 5016.41013374303840000000, 4294.87168984849180000000, 4361.53835488494590000000, 4084.61528473352060000000, 4448.20501943233650000000, 4487.69219795392840000000, 4796.92295962301980000000, 4229.74348631287920000000, 4062.56400322146280000000, 4075.89733622875380000000, 4364.61527788662810000000, 399.00000000000000000000, 4.00000000000000000000, 4.00000000000000000000, 4.00000000000000000000, 4.00000000000000000000, 4.00000000000000000000, 3.00000000000000000000, 4.00000000000000000000, 4.00000000000000000000, 4.00000000000000000000, 4.00000000000000000000, 4.00000000000000000000, 4.00000000000000000000, 4.00000000000000000000, 4.00000000000000000000, 4.00000000000000000000, 4.00000000000000000000, 1676.00000000000000000000, 1683.00000000000000000000, 0.00000000000000000000
84.00000000000000000000, 0.00000000000000000000, 4340.51271437344890000000, 4491.28194145589170000000, 4427.17937892083960000000, 5017.94859524387990000000, 4294.87168984849180000000, 4359.99989338410430000000, 4081.53836173183840000000, 4448.20501943233650000000, 4492.82040295673230000000, 4801.53834412554350000000, 4235.38451181596340000000, 4065.64092622314550000000, 4081.02554123155780000000, 4368.20502138859140000000, 413.00000000000000000000, 4.00000000000000000000, 4.00000000000000000000, 4.00000000000000000000, 4.00000000000000000000, 4.00000000000000000000, 3.00000000000000000000, 4.00000000000000000000, 4.00000000000000000000, 4.00000000000000000000, 4.00000000000000000000, 4.00000000000000000000, 4.00000000000000000000, 4.00000000000000000000, 4.00000000000000000000, 4.00000000000000000000, 4.00000000000000000000, 1673.00000000000000000000, 1683.00000000000000000000, 0.00000000000000000000
85.00000000000000000000, 0.00000000000000000000, 4332.30758636896190000000, 4487.17937745364820000000, 4425.64091741999800000000, 5011.79474924051460000000, 4292.30758734708980000000, 4351.79476537961820000000, 4085.64092573408150000000, 4447.17937843177510000000, 4487.17937745364820000000, 4799.99988262470200000000, 4232.82040931456140000000, 4065.64092622314550000000, 4074.35887472791230000000, 4364.10245738634790000000, 396.00000000000000000000, 4.00000000000000000000, 4.00000000000000000000, 4.00000000000000000000, 4.00000000000000000000, 4.00000000000000000000, 3.00000000000000000000, 4.00000000000000000000, 4.00000000000000000000, 4.00000000000000000000, 4.00000000000000000000, 4.00000000000000000000, 4.00000000000000000000, 4.00000000000000000000, 4.00000000000000000000, 4.00000000000000000000, 4.00000000000000000000, 1674.00000000000000000000, 1685.00000000000000000000, 0.00000000000000000000
86.00000000000000000000, 0.00000000000000000000, 4329.23066336727970000000, 4479.48706994944220000000, 4420.51271241719410000000, 5009.23064673911270000000, 4291.79476684680960000000, 4347.69220137737470000000, 4091.28195123716610000000, 4449.23066043289690000000, 4489.23065945476990000000, 4797.94860062358110000000, 4225.12810181035550000000, 4068.71784922482770000000, 4070.25631072566920000000, 4365.64091888718940000000, 444.00000000000000000000, 4.00000000000000000000, 4.00000000000000000000, 4.00000000000000000000, 4.00000000000000000000, 4.00000000000000000000, 3.00000000000000000000, 4.00000000000000000000, 4.00000000000000000000, 4.00000000000000000000, 4.00000000000000000000, 4.00000000000000000000, 4.00000000000000000000, 4.00000000000000000000, 4.00000000000000000000, 4.00000000000000000000, 4.00000000000000000000, 1674.00000000000000000000, 1684.00000000000000000000, 0.00000000000000000000
87.00000000000000000000, 0.00000000000000000000, 4327.17938136615790000000, 4471.28194194495520000000, 4413.33322541326830000000, 5003.58962123602760000000, 4288.71784384512650000000, 4348.71784237793510000000, 4088.20502823548350000000, 4446.66655793149490000000, 4487.17937745364820000000, 4795.89731862245940000000, 4218.97425580699020000000, 4068.71784922482770000000, 4064.61528522258460000000, 4364.10245738634790000000, 399.00000000000000000000, 4.00000000000000000000, 4.00000000000000000000, 4.00000000000000000000, 4.00000000000000000000, 4.00000000000000000000, 3.00000000000000000000, 4.00000000000000000000, 4.00000000000000000000, 4.00000000000000000000, 4.00000000000000000000, 4.00000000000000000000, 4.00000000000000000000, 4.00000000000000000000, 4.00000000000000000000, 4.00000000000000000000, 4.00000000000000000000, 1673.00000000000000000000, 1685.00000000000000000000, 0.00000000000000000000
88.00000000000000000000, 0.00000000000000000000, 4322.05117636335400000000, 4470.25630094439480000000, 4410.25630241158520000000, 4997.43577523266320000000, 4279.99989534035920000000, 4349.23066287821620000000, 4083.07682323267950000000, 4443.58963492981270000000, 4477.43578794832050000000, 4797.43578012330000000000, 4218.46143530671000000000, 4067.69220822426720000000, 4062.05118272118260000000, 4359.99989338410430000000, 413.00000000000000000000, 4.00000000000000000000, 4.00000000000000000000, 4.00000000000000000000, 4.00000000000000000000, 4.00000000000000000000, 3.00000000000000000000, 4.00000000000000000000, 4.00000000000000000000, 4.00000000000000000000, 4.00000000000000000000, 4.00000000000000000000, 4.00000000000000000000, 4.00000000000000000000, 4.00000000000000000000, 4.00000000000000000000, 4.00000000000000000000, 1673.00000000000000000000, 1683.00000000000000000000, 0.00000000000000000000
89.00000000000000000000, 0.00000000000000000000, 4320.51271486251240000000, 4470.25630094439480000000, 4412.30758441270700000000, 5000.51269823434540000000, 4277.94861333923840000000, 4354.35886788102020000000, 4078.97425923043600000000, 4444.10245543009300000000, 4474.87168544691850000000, 4794.35885712161780000000, 4219.99989680755060000000, 4066.15374672342570000000, 4068.71784922482770000000, 4362.56399588550630000000, 396.00000000000000000000, 4.00000000000000000000, 4.00000000000000000000, 4.00000000000000000000, 4.00000000000000000000, 4.00000000000000000000, 3.00000000000000000000, 4.00000000000000000000, 4.00000000000000000000, 4.00000000000000000000, 4.00000000000000000000, 4.00000000000000000000, 4.00000000000000000000, 4.00000000000000000000, 4.00000000000000000000, 4.00000000000000000000, 4.00000000000000000000, 1672.00000000000000000000, 1683.00000000000000000000, 0.00000000000000000000
90.00000000000000000000, 0.00000000000000000000, 4318.46143286139070000000, 4466.66655744243140000000, 4410.76912291186640000000, 5002.56398023546720000000, 4284.10245934260270000000, 4357.94861138298260000000, 4075.89733622875380000000, 4441.53835292869100000000, 4474.87168544691850000000, 4782.56398561516830000000, 4216.41015330558820000000, 4056.41015721809800000000, 4067.69220822426720000000, 4360.51271388438540000000, 444.00000000000000000000, 4.00000000000000000000, 4.00000000000000000000, 4.00000000000000000000, 4.00000000000000000000, 4.00000000000000000000, 3.00000000000000000000, 4.00000000000000000000, 4.00000000000000000000, 4.00000000000000000000, 4.00000000000000000000, 4.00000000000000000000, 4.00000000000000000000, 4.00000000000000000000, 4.00000000000000000000, 4.00000000000000000000, 4.00000000000000000000, 1673.00000000000000000000, 1681.00000000000000000000, 0.00000000000000000000
91.00000000000000000000, 0.00000000000000000000, 4317.43579186083020000000, 4468.71783944355320000000, 4409.23066141102480000000, 5001.02551873462560000000, 4289.74348484568780000000, 4352.30758587989840000000, 4078.46143873015580000000, 4440.51271192813060000000, 4473.33322394607690000000, 4783.58962661572880000000, 4219.99989680755060000000, 4051.79477271557430000000, 4063.07682372174350000000, 4354.87168838130040000000, 399.00000000000000000000, 4.00000000000000000000, 4.00000000000000000000, 4.00000000000000000000, 4.00000000000000000000, 4.00000000000000000000, 3.00000000000000000000, 4.00000000000000000000, 4.00000000000000000000, 4.00000000000000000000, 4.00000000000000000000, 4.00000000000000000000, 4.00000000000000000000, 4.00000000000000000000, 4.00000000000000000000, 4.00000000000000000000, 4.00000000000000000000, 1672.00000000000000000000, 1681.00000000000000000000, 0.00000000000000000000
92.00000000000000000000, 0.00000000000000000000, 4325.64091986531640000000, 4477.43578794832050000000, 4415.38450741439010000000, 5008.71782623883250000000, 4295.89733084905220000000, 4349.74348337849640000000, 4079.48707973071670000000, 4440.51271192813060000000, 4475.89732644747890000000, 4796.41013912273960000000, 4230.76912731343960000000, 4061.53836222090190000000, 4070.76913122594940000000, 4361.02553438466570000000, 413.00000000000000000000, 4.00000000000000000000, 4.00000000000000000000, 4.00000000000000000000, 4.00000000000000000000, 4.00000000000000000000, 3.00000000000000000000, 4.00000000000000000000, 4.00000000000000000000, 4.00000000000000000000, 4.00000000000000000000, 4.00000000000000000000, 4.00000000000000000000, 4.00000000000000000000, 4.00000000000000000000, 4.00000000000000000000, 4.00000000000000000000, 1673.00000000000000000000, 1681.00000000000000000000, 0.00000000000000000000
93.00000000000000000000, 0.00000000000000000000, 4334.87168887036390000000, 4486.66655695336790000000, 4421.02553291747430000000, 5019.99987724500170000000, 4299.99989485129570000000, 4351.79476537961820000000, 4075.38451572847320000000, 4441.02553242841080000000, 4483.58963395168480000000, 4805.64090812778700000000, 4234.87169131568320000000, 4072.30759272679100000000, 4084.61528473352060000000, 4375.38450839251710000000, 396.00000000000000000000, 4.00000000000000000000, 4.00000000000000000000, 4.00000000000000000000, 4.00000000000000000000, 4.00000000000000000000, 3.00000000000000000000, 4.00000000000000000000, 4.00000000000000000000, 4.00000000000000000000, 4.00000000000000000000, 4.00000000000000000000, 4.00000000000000000000, 4.00000000000000000000, 4.00000000000000000000, 4.00000000000000000000, 4.00000000000000000000, 1673.00000000000000000000, 1681.00000000000000000000, 0.00000000000000000000
94.00000000000000000000, 0.00000000000000000000, 4335.89732987092520000000, 4491.28194145589170000000, 4423.58963541887620000000, 5021.53833874584230000000, 4301.02553585185710000000, 4350.25630387877660000000, 4074.35887472791230000000, 4451.28194243401870000000, 4491.28194145589170000000, 4812.30757463143250000000, 4236.41015281652380000000, 4076.41015672903400000000, 4088.71784873576420000000, 4381.02553389560220000000, 444.00000000000000000000, 4.00000000000000000000, 4.00000000000000000000, 4.00000000000000000000, 4.00000000000000000000, 4.00000000000000000000, 3.00000000000000000000, 4.00000000000000000000, 4.00000000000000000000, 4.00000000000000000000, 4.00000000000000000000, 4.00000000000000000000, 4.00000000000000000000, 4.00000000000000000000, 4.00000000000000000000, 4.00000000000000000000, 4.00000000000000000000, 1674.00000000000000000000, 1681.00000000000000000000, 0.00000000000000000000
95.00000000000000000000, 0.00000000000000000000, 4334.35886837008370000000, 4490.25630045533030000000, 4429.23066092196130000000, 5018.46141574416010000000, 4300.51271535157590000000, 4346.66656037681420000000, 4070.76913122594940000000, 4458.46142943794440000000, 4490.76912095561060000000, 4816.41013863367610000000, 4237.94861431736540000000, 4076.41015672903400000000, 4085.64092573408150000000, 4380.51271339532100000000, 399.00000000000000000000, 4.00000000000000000000, 4.00000000000000000000, 4.00000000000000000000, 4.00000000000000000000, 4.00000000000000000000, 3.00000000000000000000, 4.00000000000000000000, 4.00000000000000000000, 4.00000000000000000000, 4.00000000000000000000, 4.00000000000000000000, 4.00000000000000000000, 4.00000000000000000000, 4.00000000000000000000, 4.00000000000000000000, 4.00000000000000000000, 1673.00000000000000000000, 1681.00000000000000000000, 0.00000000000000000000
96.00000000000000000000, 0.00000000000000000000, 4336.92297087148560000000, 4489.23065945476990000000, 4433.33322492420390000000, 5021.02551824556210000000, 4298.46143335045510000000, 4348.71784237793510000000, 4065.12810572286480000000, 4450.76912193373850000000, 4481.02553145028290000000, 4807.17936962862860000000, 4237.43579381708510000000, 4076.92297722931470000000, 4082.56400273239930000000, 4379.48707239476060000000, 413.00000000000000000000, 4.00000000000000000000, 4.00000000000000000000, 4.00000000000000000000, 4.00000000000000000000, 4.00000000000000000000, 3.00000000000000000000, 4.00000000000000000000, 4.00000000000000000000, 4.00000000000000000000, 4.00000000000000000000, 4.00000000000000000000, 4.00000000000000000000, 4.00000000000000000000, 4.00000000000000000000, 4.00000000000000000000, 4.00000000000000000000, 1674.00000000000000000000, 1681.00000000000000000000, 0.00000000000000000000
97.00000000000000000000, 0.00000000000000000000, 4335.38450937064500000000, 4488.71783895448970000000, 4428.20501992140000000000, 5021.53833874584230000000, 4295.89733084905220000000, 4351.79476537961820000000, 4071.28195172623010000000, 4445.12809643065430000000, 4476.41014694775910000000, 4798.46142112386130000000, 4231.79476831400010000000, 4075.89733622875380000000, 4077.94861822987510000000, 4377.94861089391910000000, 396.00000000000000000000, 4.00000000000000000000, 4.00000000000000000000, 4.00000000000000000000, 4.00000000000000000000, 4.00000000000000000000, 3.00000000000000000000, 4.00000000000000000000, 4.00000000000000000000, 4.00000000000000000000, 4.00000000000000000000, 4.00000000000000000000, 4.00000000000000000000, 4.00000000000000000000, 4.00000000000000000000, 4.00000000000000000000, 4.00000000000000000000, 1674.00000000000000000000, 1680.00000000000000000000, 0.00000000000000000000
98.00000000000000000000, 0.00000000000000000000, 4328.20502236671840000000, 4481.53835195056310000000, 4419.48707141663270000000, 5011.79474924051460000000, 4295.38451034877200000000, 4349.74348337849640000000, 4076.41015672903400000000, 4445.12809643065430000000, 4476.41014694775910000000, 4797.43578012330000000000, 4222.05117880867240000000, 4064.61528522258460000000, 4069.74349022538850000000, 4371.28194439027360000000, 444.00000000000000000000, 4.00000000000000000000, 4.00000000000000000000, 4.00000000000000000000, 4.00000000000000000000, 4.00000000000000000000, 3.00000000000000000000, 4.00000000000000000000, 4.00000000000000000000, 4.00000000000000000000, 4.00000000000000000000, 4.00000000000000000000, 4.00000000000000000000, 4.00000000000000000000, 4.00000000000000000000, 4.00000000000000000000, 4.00000000000000000000, 1673.00000000000000000000, 1681.00000000000000000000, 0.00000000000000000000
99.00000000000000000000, 0.00000000000000000000, 4325.64091986531640000000, 4473.33322394607690000000, 4417.94860991579210000000, 5007.17936473799090000000, 4296.92297184961350000000, 4350.76912437905680000000, 4074.35887472791230000000, 4445.12809643065430000000, 4474.35886494663740000000, 4793.84603662133760000000, 4219.48707630727040000000, 4057.43579821865890000000, 4066.15374672342570000000, 4363.58963688606760000000, 399.00000000000000000000, 4.00000000000000000000, 4.00000000000000000000, 4.00000000000000000000, 4.00000000000000000000, 4.00000000000000000000, 3.00000000000000000000, 4.00000000000000000000, 4.00000000000000000000, 4.00000000000000000000, 4.00000000000000000000, 4.00000000000000000000, 4.00000000000000000000, 4.00000000000000000000, 4.00000000000000000000, 4.00000000000000000000, 4.00000000000000000000, 1675.00000000000000000000, 1680.00000000000000000000, 0.00000000000000000000
100.00000000000000000000, 0.00000000000000000000, 4327.69220186643820000000, 4475.89732644747890000000, 4423.58963541887620000000, 5012.82039024107510000000, 4297.43579234989370000000, 4356.41014988214190000000, 4077.94861822987510000000, 4451.28194243401870000000, 4480.51271095000270000000, 4794.87167762189800000000, 4229.23066581259810000000, 4070.76913122594940000000, 4074.35887472791230000000, 4367.69220088831120000000, 413.00000000000000000000, 4.00000000000000000000, 4.00000000000000000000, 4.00000000000000000000, 4.00000000000000000000, 4.00000000000000000000, 3.00000000000000000000, 4.00000000000000000000, 4.00000000000000000000, 4.00000000000000000000, 4.00000000000000000000, 4.00000000000000000000, 4.00000000000000000000, 4.00000000000000000000, 4.00000000000000000000, 4.00000000000000000000, 4.00000000000000000000, 1674.00000000000000000000, 1680.00000000000000000000, 0.00000000000000000000
101.00000000000000000000, 0.00000000000000000000, 4326.66656086587770000000, 4477.43578794832050000000, 4419.48707141663270000000, 5012.82039024107510000000, 4293.84604884793040000000, 4359.48707288382410000000, 4089.74348973632500000000, 4462.56399344018790000000, 4492.30758245645210000000, 4801.02552362526330000000, 4233.33322981484160000000, 4079.48707973071670000000, 4076.92297722931470000000, 4373.84604689167550000000, 396.00000000000000000000, 4.00000000000000000000, 4.00000000000000000000, 4.00000000000000000000, 4.00000000000000000000, 4.00000000000000000000, 3.00000000000000000000, 4.00000000000000000000, 4.00000000000000000000, 4.00000000000000000000, 4.00000000000000000000, 4.00000000000000000000, 4.00000000000000000000, 4.00000000000000000000, 4.00000000000000000000, 4.00000000000000000000, 4.00000000000000000000, 1675.00000000000000000000, 1680.00000000000000000000, 0.00000000000000000000
102.00000000000000000000, 0.00000000000000000000, 4325.12809936503620000000, 4475.38450594719870000000, 4416.41014841495050000000, 5011.28192874023440000000, 4294.87168984849180000000, 4358.46143188326370000000, 4093.33323323828790000000, 4467.17937794271170000000, 4494.87168495785410000000, 4801.02552362526330000000, 4229.74348631287920000000, 4070.76913122594940000000, 4072.30759272679100000000, 4372.30758539083490000000, 444.00000000000000000000, 4.00000000000000000000, 4.00000000000000000000, 4.00000000000000000000, 4.00000000000000000000, 4.00000000000000000000, 3.00000000000000000000, 4.00000000000000000000, 4.00000000000000000000, 4.00000000000000000000, 4.00000000000000000000, 4.00000000000000000000, 4.00000000000000000000, 4.00000000000000000000, 4.00000000000000000000, 4.00000000000000000000, 4.00000000000000000000, 1674.00000000000000000000, 1680.00000000000000000000, 0.00000000000000000000
103.00000000000000000000, 0.00000000000000000000, 4326.15374036559750000000, 4477.94860844860070000000, 4423.07681491859600000000, 5015.38449274247710000000, 4300.51271535157590000000, 4350.25630387877660000000, 4080.51272073127760000000, 4457.94860893766420000000, 4489.23065945476990000000, 4804.61526712722570000000, 4233.84605031512180000000, 4068.20502872454740000000, 4076.92297722931470000000, 4374.35886739195670000000, 399.00000000000000000000, 4.00000000000000000000, 4.00000000000000000000, 4.00000000000000000000, 4.00000000000000000000, 4.00000000000000000000, 3.00000000000000000000, 4.00000000000000000000, 4.00000000000000000000, 4.00000000000000000000, 4.00000000000000000000, 4.00000000000000000000, 4.00000000000000000000, 4.00000000000000000000, 4.00000000000000000000, 4.00000000000000000000, 4.00000000000000000000, 1675.00000000000000000000, 1680.00000000000000000000, 0.00000000000000000000
