title:                                                                                , recorded:16.08.19 14.39.21, sampling:128, subject:                                                                                , labels:COUNTER INTERPOLATED AF3 F7 F3 FC5 T7 P7 O1 O2 P8 T8 FC6 F4 F8 AF4 RAW_CQ CQ_AF3 CQ_F7 CQ_F3 CQ_FC5 CQ_T7 CQ_P7 CQ_O1 CQ_O2 CQ_P8 CQ_T8 CQ_FC6 CQ_F4 CQ_F8 CQ_AF4 CQ_CMS CQ_DRL GYROX GYROY MARKER, chan:36, units:emotiv
5.00000000000000000000, 0.00000000000000000000, 4370.25630338971310000000, 4564.10245249571020000000, 4458.46142943794440000000, 5049.74346626126500000000, 4336.92297087148560000000, 4304.61527935381950000000, 4311.79476635774520000000, 4410.76912291186640000000, 4440.51271192813060000000, 4745.64090959497840000000, 4320.51271486251240000000, 4108.71784824670070000000, 4444.61527593037320000000, 4493.33322345701340000000, 318.00000000000000000000, 4.00000000000000000000, 4.00000000000000000000, 4.00000000000000000000, 4.00000000000000000000, 4.00000000000000000000, 3.00000000000000000000, 4.00000000000000000000, 4.00000000000000000000, 4.00000000000000000000, 4.00000000000000000000, 4.00000000000000000000, 4.00000000000000000000, 4.00000000000000000000, 4.00000000000000000000, 4.00000000000000000000, 4.00000000000000000000, 1669.00000000000000000000, 1686.00000000000000000000, 0.00000000000000000000
6.00000000000000000000, 0.00000000000000000000, 4368.20502138859140000000, 4557.43578599206560000000, 4454.87168593598200000000, 5043.07679975762040000000, 4332.82040686924300000000, 4302.56399735269770000000, 4308.71784335606300000000, 4411.28194341214660000000, 4442.05117342897120000000, 4748.71783259666060000000, 4323.58963786419460000000, 4107.69220724613930000000, 4442.05117342897120000000, 4490.76912095561060000000, 447.00000000000000000000, 4.00000000000000000000, 4.00000000000000000000, 4.00000000000000000000, 4.00000000000000000000, 4.00000000000000000000, 3.00000000000000000000, 4.00000000000000000000, 4.00000000000000000000, 4.00000000000000000000, 4.00000000000000000000, 4.00000000000000000000, 4.00000000000000000000, 4.00000000000000000000, 4.00000000000000000000, 4.00000000000000000000, 4.00000000000000000000, 1670.00000000000000000000, 1685.00000000000000000000, 0.00000000000000000000
7.00000000000000000000, 0.00000000000000000000, 4368.71784188887160000000, 4554.35886299038250000000, 4454.87168593598200000000, 5039.99987675593730000000, 4327.69220186643820000000, 4305.64092035438080000000, 4310.25630485690450000000, 4416.41014841495050000000, 4456.41014743682260000000, 4750.25629409750220000000, 4318.97425336167090000000, 4105.64092524501760000000, 4426.15373792027820000000, 4484.10245445196600000000, 422.00000000000000000000, 4.00000000000000000000, 4.00000000000000000000, 4.00000000000000000000, 4.00000000000000000000, 4.00000000000000000000, 3.00000000000000000000, 4.00000000000000000000, 4.00000000000000000000, 4.00000000000000000000, 4.00000000000000000000, 4.00000000000000000000, 4.00000000000000000000, 4.00000000000000000000, 4.00000000000000000000, 4.00000000000000000000, 4.00000000000000000000, 1669.00000000000000000000, 1685.00000000000000000000, 0.00000000000000000000
8.00000000000000000000, 0.00000000000000000000, 4369.74348288943290000000, 4557.94860649234580000000, 4457.43578843738400000000, 5042.56397925733930000000, 4331.79476586868170000000, 4309.74348435662340000000, 4312.30758685802630000000, 4423.58963541887620000000, 4462.05117293990770000000, 4749.23065309694080000000, 4313.33322785858670000000, 4101.02554074249380000000, 4424.61527641943760000000, 4477.43578794832050000000, 370.00000000000000000000, 4.00000000000000000000, 4.00000000000000000000, 4.00000000000000000000, 4.00000000000000000000, 4.00000000000000000000, 3.00000000000000000000, 4.00000000000000000000, 4.00000000000000000000, 4.00000000000000000000, 4.00000000000000000000, 4.00000000000000000000, 4.00000000000000000000, 4.00000000000000000000, 4.00000000000000000000, 4.00000000000000000000, 4.00000000000000000000, 1670.00000000000000000000, 1686.00000000000000000000, 0.00000000000000000000
9.00000000000000000000, 0.00000000000000000000, 4366.15373938746960000000, 4554.35886299038250000000, 4451.79476293429890000000, 5039.48705625565710000000, 4334.35886837008370000000, 4311.28194585746500000000, 4311.79476635774520000000, 4428.71784042168020000000, 4459.99989093878590000000, 4745.12808909469820000000, 4312.30758685802630000000, 4095.89733573968990000000, 4427.69219942111980000000, 4471.28194194495520000000, 412.00000000000000000000, 4.00000000000000000000, 4.00000000000000000000, 4.00000000000000000000, 4.00000000000000000000, 4.00000000000000000000, 3.00000000000000000000, 4.00000000000000000000, 4.00000000000000000000, 4.00000000000000000000, 4.00000000000000000000, 4.00000000000000000000, 4.00000000000000000000, 4.00000000000000000000, 4.00000000000000000000, 4.00000000000000000000, 4.00000000000000000000, 1670.00000000000000000000, 1686.00000000000000000000, 0.00000000000000000000
10.00000000000000000000, 0.00000000000000000000, 4363.58963688606760000000, 4552.30758098926070000000, 4445.12809643065430000000, 5032.82038975201160000000, 4324.10245836447580000000, 4304.61527935381950000000, 4312.30758685802630000000, 4429.23066092196130000000, 4457.94860893766420000000, 4735.38449958936960000000, 4311.79476635774520000000, 4090.76913073688590000000, 4416.92296891523070000000, 4470.25630094439480000000, 436.00000000000000000000, 4.00000000000000000000, 4.00000000000000000000, 4.00000000000000000000, 4.00000000000000000000, 4.00000000000000000000, 3.00000000000000000000, 4.00000000000000000000, 4.00000000000000000000, 4.00000000000000000000, 4.00000000000000000000, 4.00000000000000000000, 4.00000000000000000000, 4.00000000000000000000, 4.00000000000000000000, 4.00000000000000000000, 4.00000000000000000000, 1670.00000000000000000000, 1687.00000000000000000000, 0.00000000000000000000
11.00000000000000000000, 0.00000000000000000000, 4362.56399588550630000000, 4552.82040148954180000000, 4445.12809643065430000000, 5032.82038975201160000000, 4316.92297136055000000000, 4296.92297184961350000000, 4312.82040735830650000000, 4421.02553291747430000000, 4452.82040393486020000000, 4731.79475608740720000000, 4315.38450985970850000000, 4087.17938723492310000000, 4410.76912291186640000000, 4471.28194194495520000000, 400.00000000000000000000, 4.00000000000000000000, 4.00000000000000000000, 4.00000000000000000000, 4.00000000000000000000, 4.00000000000000000000, 3.00000000000000000000, 4.00000000000000000000, 4.00000000000000000000, 4.00000000000000000000, 4.00000000000000000000, 4.00000000000000000000, 4.00000000000000000000, 4.00000000000000000000, 4.00000000000000000000, 4.00000000000000000000, 4.00000000000000000000, 1672.00000000000000000000, 1687.00000000000000000000, 0.00000000000000000000
12.00000000000000000000, 0.00000000000000000000, 4363.07681638578740000000, 4552.82040148954180000000, 4453.33322443514040000000, 5038.97423575537690000000, 4319.99989436223220000000, 4296.41015134933330000000, 4307.69220235550260000000, 4408.20502041046350000000, 4444.61527593037320000000, 4735.89732008964980000000, 4323.07681736391440000000, 4092.82041273800720000000, 4419.48707141663270000000, 4474.35886494663740000000, 412.00000000000000000000, 4.00000000000000000000, 4.00000000000000000000, 4.00000000000000000000, 4.00000000000000000000, 4.00000000000000000000, 3.00000000000000000000, 4.00000000000000000000, 4.00000000000000000000, 4.00000000000000000000, 4.00000000000000000000, 4.00000000000000000000, 4.00000000000000000000, 4.00000000000000000000, 4.00000000000000000000, 4.00000000000000000000, 4.00000000000000000000, 1670.00000000000000000000, 1688.00000000000000000000, 0.00000000000000000000
13.00000000000000000000, 0.00000000000000000000, 4367.17938038803090000000, 4552.30758098926070000000, 4458.97424993822550000000, 5042.05115875705910000000, 4320.51271486251240000000, 4294.87168984849180000000, 4304.61527935381950000000, 4401.02553340653780000000, 4435.38450692532570000000, 4732.30757658768740000000, 4325.12809936503620000000, 4102.05118174305520000000, 4424.61527641943760000000, 4481.02553145028290000000, 394.00000000000000000000, 4.00000000000000000000, 4.00000000000000000000, 4.00000000000000000000, 4.00000000000000000000, 4.00000000000000000000, 3.00000000000000000000, 4.00000000000000000000, 4.00000000000000000000, 4.00000000000000000000, 4.00000000000000000000, 4.00000000000000000000, 4.00000000000000000000, 4.00000000000000000000, 4.00000000000000000000, 4.00000000000000000000, 4.00000000000000000000, 1672.00000000000000000000, 1689.00000000000000000000, 0.00000000000000000000
14.00000000000000000000, 0.00000000000000000000, 4376.41014939307840000000, 4553.84604249010230000000, 4457.43578843738400000000, 5043.07679975762040000000, 4317.43579186083020000000, 4290.76912584624820000000, 4306.15374085466100000000, 4398.97425140541600000000, 4428.20501992140000000000, 4725.64091008404190000000, 4324.10245836447580000000, 4104.10246374417690000000, 4425.12809691971780000000, 4488.71783895448970000000, 436.00000000000000000000, 4.00000000000000000000, 4.00000000000000000000, 4.00000000000000000000, 4.00000000000000000000, 4.00000000000000000000, 3.00000000000000000000, 4.00000000000000000000, 4.00000000000000000000, 4.00000000000000000000, 4.00000000000000000000, 4.00000000000000000000, 4.00000000000000000000, 4.00000000000000000000, 4.00000000000000000000, 4.00000000000000000000, 4.00000000000000000000, 1670.00000000000000000000, 1689.00000000000000000000, 0.00000000000000000000
15.00000000000000000000, 0.00000000000000000000, 4382.56399539644280000000, 4562.05117049458930000000, 4463.58963444074930000000, 5051.28192776210650000000, 4318.97425336167090000000, 4292.30758734708980000000, 4309.23066385634320000000, 4398.97425140541600000000, 4425.64091741999800000000, 4728.71783308572410000000, 4329.23066336727970000000, 4107.17938674585910000000, 4427.17937892083960000000, 4492.30758245645210000000, 400.00000000000000000000, 4.00000000000000000000, 4.00000000000000000000, 4.00000000000000000000, 4.00000000000000000000, 4.00000000000000000000, 3.00000000000000000000, 4.00000000000000000000, 4.00000000000000000000, 4.00000000000000000000, 4.00000000000000000000, 4.00000000000000000000, 4.00000000000000000000, 4.00000000000000000000, 4.00000000000000000000, 4.00000000000000000000, 4.00000000000000000000, 1670.00000000000000000000, 1692.00000000000000000000, 0.00000000000000000000
16.00000000000000000000, 0.00000000000000000000, 4383.07681589672300000000, 4566.66655499711310000000, 4475.38450594719870000000, 5058.97423526631340000000, 4324.61527886475600000000, 4295.38451034877200000000, 4310.25630485690450000000, 4407.17937940990300000000, 4431.28194292308220000000, 4735.38449958936960000000, 4337.43579137176680000000, 4118.97425825230860000000, 4429.23066092196130000000, 4493.84604395729370000000, 0.00000000000000000000, 4.00000000000000000000, 4.00000000000000000000, 4.00000000000000000000, 4.00000000000000000000, 4.00000000000000000000, 3.00000000000000000000, 4.00000000000000000000, 4.00000000000000000000, 4.00000000000000000000, 4.00000000000000000000, 4.00000000000000000000, 4.00000000000000000000, 4.00000000000000000000, 4.00000000000000000000, 4.00000000000000000000, 4.00000000000000000000, 1671.00000000000000000000, 1692.00000000000000000000, 0.00000000000000000000
17.00000000000000000000, 0.00000000000000000000, 4384.10245689728440000000, 4562.05117049458930000000, 4472.30758294551560000000, 5054.87167126406980000000, 4325.64091986531640000000, 4294.87168984849180000000, 4312.82040735830650000000, 4413.33322541326830000000, 4439.48707092756920000000, 4739.99988409189340000000, 4343.58963737513110000000, 4123.58964275483230000000, 4432.82040442392370000000, 4496.92296695897580000000, 0.00000000000000000000, 4.00000000000000000000, 4.00000000000000000000, 4.00000000000000000000, 4.00000000000000000000, 4.00000000000000000000, 3.00000000000000000000, 4.00000000000000000000, 4.00000000000000000000, 4.00000000000000000000, 4.00000000000000000000, 4.00000000000000000000, 4.00000000000000000000, 4.00000000000000000000, 4.00000000000000000000, 4.00000000000000000000, 4.00000000000000000000, 1672.00000000000000000000, 1693.00000000000000000000, 0.00000000000000000000
18.00000000000000000000, 0.00000000000000000000, 4378.46143139419930000000, 4552.30758098926070000000, 4460.51271143906620000000, 5044.61526125846100000000, 4317.94861236111050000000, 4296.92297184961350000000, 4315.89733035998870000000, 4408.20502041046350000000, 4441.53835292869100000000, 4739.48706359161320000000, 4334.87168887036390000000, 4109.23066874698090000000, 4424.61527641943760000000, 4489.23065945476990000000, 0.00000000000000000000, 4.00000000000000000000, 4.00000000000000000000, 4.00000000000000000000, 4.00000000000000000000, 4.00000000000000000000, 3.00000000000000000000, 4.00000000000000000000, 4.00000000000000000000, 4.00000000000000000000, 4.00000000000000000000, 4.00000000000000000000, 4.00000000000000000000, 4.00000000000000000000, 4.00000000000000000000, 4.00000000000000000000, 4.00000000000000000000, 1671.00000000000000000000, 1692.00000000000000000000, 0.00000000000000000000
19.00000000000000000000, 0.00000000000000000000, 4364.10245738634790000000, 4542.05117098365280000000, 4452.30758343458000000000, 5039.48705625565710000000, 4316.92297136055000000000, 4302.56399735269770000000, 4309.23066385634320000000, 4407.17937940990300000000, 4441.53835292869100000000, 4734.87167908908940000000, 4319.99989436223220000000, 4097.94861774081160000000, 4408.20502041046350000000, 4473.84604444635720000000, 0.00000000000000000000, 4.00000000000000000000, 4.00000000000000000000, 4.00000000000000000000, 4.00000000000000000000, 4.00000000000000000000, 3.00000000000000000000, 4.00000000000000000000, 4.00000000000000000000, 4.00000000000000000000, 4.00000000000000000000, 4.00000000000000000000, 4.00000000000000000000, 4.00000000000000000000, 4.00000000000000000000, 4.00000000000000000000, 4.00000000000000000000, 1671.00000000000000000000, 1692.00000000000000000000, 0.00000000000000000000
20.00000000000000000000, 0.00000000000000000000, 4357.43579088270230000000, 4536.92296598084890000000, 4446.15373743121470000000, 5038.46141525509670000000, 4324.10245836447580000000, 4306.15374085466100000000, 4306.66656135494120000000, 4421.02553291747430000000, 4454.35886543570180000000, 4738.46142259105270000000, 4319.99989436223220000000, 4099.99989974193340000000, 4408.20502041046350000000, 4468.20501894327300000000, 0.00000000000000000000, 4.00000000000000000000, 4.00000000000000000000, 4.00000000000000000000, 4.00000000000000000000, 4.00000000000000000000, 3.00000000000000000000, 4.00000000000000000000, 4.00000000000000000000, 4.00000000000000000000, 4.00000000000000000000, 4.00000000000000000000, 4.00000000000000000000, 4.00000000000000000000, 4.00000000000000000000, 4.00000000000000000000, 4.00000000000000000000, 1674.00000000000000000000, 1689.00000000000000000000, 0.00000000000000000000
21.00000000000000000000, 0.00000000000000000000, 4363.58963688606760000000, 4544.10245298477460000000, 4450.25630143345820000000, 5037.94859475481550000000, 4319.99989436223220000000, 4307.69220235550260000000, 4315.89733035998870000000, 4432.82040442392370000000, 4470.76912144467500000000, 4751.79475559834280000000, 4327.17938136615790000000, 4105.12810474473740000000, 4414.87168691410900000000, 4474.35886494663740000000, 0.00000000000000000000, 4.00000000000000000000, 4.00000000000000000000, 4.00000000000000000000, 4.00000000000000000000, 4.00000000000000000000, 3.00000000000000000000, 4.00000000000000000000, 4.00000000000000000000, 4.00000000000000000000, 4.00000000000000000000, 4.00000000000000000000, 4.00000000000000000000, 4.00000000000000000000, 4.00000000000000000000, 4.00000000000000000000, 4.00000000000000000000, 1673.00000000000000000000, 1688.00000000000000000000, 0.00000000000000000000
22.00000000000000000000, 0.00000000000000000000, 4372.30758539083490000000, 4552.30758098926070000000, 4459.48707043850570000000, 5044.10244075818080000000, 4313.33322785858670000000, 4310.25630485690450000000, 4313.33322785858670000000, 4433.84604542448510000000, 4476.92296744803930000000, 4764.61526810535360000000, 4334.35886837008370000000, 4113.33323274922440000000, 4421.02553291747430000000, 4484.10245445196600000000, 0.00000000000000000000, 4.00000000000000000000, 4.00000000000000000000, 4.00000000000000000000, 4.00000000000000000000, 4.00000000000000000000, 3.00000000000000000000, 4.00000000000000000000, 4.00000000000000000000, 4.00000000000000000000, 4.00000000000000000000, 4.00000000000000000000, 4.00000000000000000000, 4.00000000000000000000, 4.00000000000000000000, 4.00000000000000000000, 4.00000000000000000000, 1676.00000000000000000000, 1684.00000000000000000000, 0.00000000000000000000
23.00000000000000000000, 0.00000000000000000000, 4379.99989289504080000000, 4553.33322198982210000000, 4461.53835243962750000000, 5052.30756876266790000000, 4322.05117636335400000000, 4305.12809985409970000000, 4296.41015134933330000000, 4429.74348142224150000000, 4474.87168544691850000000, 4769.23065260787730000000, 4345.12809887597270000000, 4125.64092475595410000000, 4433.33322492420390000000, 4492.82040295673230000000, 0.00000000000000000000, 4.00000000000000000000, 4.00000000000000000000, 4.00000000000000000000, 4.00000000000000000000, 4.00000000000000000000, 3.00000000000000000000, 4.00000000000000000000, 4.00000000000000000000, 4.00000000000000000000, 4.00000000000000000000, 4.00000000000000000000, 4.00000000000000000000, 4.00000000000000000000, 4.00000000000000000000, 4.00000000000000000000, 4.00000000000000000000, 1673.00000000000000000000, 1683.00000000000000000000, 0.00000000000000000000
24.00000000000000000000, 0.00000000000000000000, 4386.15373889840610000000, 4562.56399099486950000000, 4465.12809594158990000000, 5055.38449176435010000000, 4326.15374036559750000000, 4295.89733084905220000000, 4286.15374134372450000000, 4425.12809691971780000000, 4467.69219844299190000000, 4766.66655010647540000000, 4348.71784237793510000000, 4134.87169376100160000000, 4442.56399392925140000000, 4503.58963346262140000000, 0.00000000000000000000, 4.00000000000000000000, 4.00000000000000000000, 4.00000000000000000000, 4.00000000000000000000, 4.00000000000000000000, 3.00000000000000000000, 4.00000000000000000000, 4.00000000000000000000, 4.00000000000000000000, 4.00000000000000000000, 4.00000000000000000000, 4.00000000000000000000, 4.00000000000000000000, 4.00000000000000000000, 4.00000000000000000000, 4.00000000000000000000, 1675.00000000000000000000, 1682.00000000000000000000, 0.00000000000000000000
25.00000000000000000000, 0.00000000000000000000, 4389.23066190008830000000, 4572.82040100047740000000, 4475.38450594719870000000, 5057.94859426575200000000, 4323.58963786419460000000, 4297.94861285017400000000, 4275.89733133811660000000, 4425.12809691971780000000, 4462.56399344018790000000, 4767.69219110703580000000, 4345.64091937625290000000, 4139.99989876380550000000, 4447.69219893205630000000, 4510.76912046654710000000, 0.00000000000000000000, 4.00000000000000000000, 4.00000000000000000000, 4.00000000000000000000, 4.00000000000000000000, 4.00000000000000000000, 3.00000000000000000000, 4.00000000000000000000, 4.00000000000000000000, 4.00000000000000000000, 4.00000000000000000000, 4.00000000000000000000, 4.00000000000000000000, 4.00000000000000000000, 4.00000000000000000000, 4.00000000000000000000, 4.00000000000000000000, 1674.00000000000000000000, 1680.00000000000000000000, 0.00000000000000000000
26.00000000000000000000, 0.00000000000000000000, 4391.28194390121010000000, 4567.69219599767350000000, 4477.94860844860070000000, 5060.51269676715400000000, 4324.61527886475600000000, 4304.10245885353920000000, 4271.79476733587310000000, 4424.61527641943760000000, 4455.38450643626220000000, 4765.12808860563380000000, 4344.10245787541130000000, 4137.43579626240350000000, 4443.07681442953250000000, 4506.15373596402330000000, 0.00000000000000000000, 4.00000000000000000000, 4.00000000000000000000, 4.00000000000000000000, 4.00000000000000000000, 4.00000000000000000000, 3.00000000000000000000, 4.00000000000000000000, 4.00000000000000000000, 4.00000000000000000000, 4.00000000000000000000, 4.00000000000000000000, 4.00000000000000000000, 4.00000000000000000000, 4.00000000000000000000, 4.00000000000000000000, 4.00000000000000000000, 1674.00000000000000000000, 1682.00000000000000000000, 0.00000000000000000000
27.00000000000000000000, 0.00000000000000000000, 4388.20502089952790000000, 4557.94860649234580000000, 4469.23065994383340000000, 5057.43577376547180000000, 4324.10245836447580000000, 4302.56399735269770000000, 4292.30758734708980000000, 4416.92296891523070000000, 4442.05117342897120000000, 4751.28193509806260000000, 4335.38450937064500000000, 4125.12810425567390000000, 4429.23066092196130000000, 4493.84604395729370000000, 0.00000000000000000000, 4.00000000000000000000, 4.00000000000000000000, 4.00000000000000000000, 4.00000000000000000000, 4.00000000000000000000, 3.00000000000000000000, 4.00000000000000000000, 4.00000000000000000000, 4.00000000000000000000, 4.00000000000000000000, 4.00000000000000000000, 4.00000000000000000000, 4.00000000000000000000, 4.00000000000000000000, 4.00000000000000000000, 4.00000000000000000000, 1674.00000000000000000000, 1682.00000000000000000000, 0.00000000000000000000
28.00000000000000000000, 0.00000000000000000000, 4378.97425189448040000000, 4551.79476048898050000000, 4461.02553193934640000000, 5050.25628676154610000000, 4322.05117636335400000000, 4303.07681785297880000000, 4301.53835635213730000000, 4417.43578941551100000000, 4442.56399392925140000000, 4744.61526859441710000000, 4327.69220186643820000000, 4114.87169425006500000000, 4423.07681491859600000000, 4487.17937745364820000000, 0.00000000000000000000, 4.00000000000000000000, 4.00000000000000000000, 4.00000000000000000000, 4.00000000000000000000, 4.00000000000000000000, 3.00000000000000000000, 4.00000000000000000000, 4.00000000000000000000, 4.00000000000000000000, 4.00000000000000000000, 4.00000000000000000000, 4.00000000000000000000, 4.00000000000000000000, 4.00000000000000000000, 4.00000000000000000000, 4.00000000000000000000, 1674.00000000000000000000, 1684.00000000000000000000, 0.00000000000000000000
29.00000000000000000000, 0.00000000000000000000, 4369.74348288943290000000, 4543.07681198421320000000, 4453.84604493542070000000, 5040.51269725621750000000, 4323.58963786419460000000, 4310.25630485690450000000, 4278.97425433979880000000, 4428.71784042168020000000, 4457.43578843738400000000, 4750.25629409750220000000, 4322.56399686363420000000, 4109.23066874698090000000, 4417.94860991579210000000, 4482.05117245084420000000, 0.00000000000000000000, 4.00000000000000000000, 4.00000000000000000000, 4.00000000000000000000, 4.00000000000000000000, 4.00000000000000000000, 3.00000000000000000000, 4.00000000000000000000, 4.00000000000000000000, 4.00000000000000000000, 4.00000000000000000000, 4.00000000000000000000, 4.00000000000000000000, 4.00000000000000000000, 4.00000000000000000000, 4.00000000000000000000, 4.00000000000000000000, 1673.00000000000000000000, 1683.00000000000000000000, 0.00000000000000000000
30.00000000000000000000, 0.00000000000000000000, 4359.99989338410430000000, 4532.30758147832510000000, 4445.12809643065430000000, 5030.25628725060960000000, 4322.56399686363420000000, 4314.35886885914720000000, 4267.17938283334930000000, 4428.20501992140000000000, 4463.58963444074930000000, 4752.30757609862390000000, 4313.84604835886690000000, 4098.46143824109190000000, 4401.02553340653780000000, 4468.71783944355320000000, 0.00000000000000000000, 4.00000000000000000000, 4.00000000000000000000, 4.00000000000000000000, 4.00000000000000000000, 4.00000000000000000000, 3.00000000000000000000, 4.00000000000000000000, 4.00000000000000000000, 4.00000000000000000000, 4.00000000000000000000, 4.00000000000000000000, 4.00000000000000000000, 4.00000000000000000000, 4.00000000000000000000, 4.00000000000000000000, 4.00000000000000000000, 1672.00000000000000000000, 1684.00000000000000000000, 0.00000000000000000000
31.00000000000000000000, 0.00000000000000000000, 4348.20502187765490000000, 4522.56399197299650000000, 4439.99989142784940000000, 5023.58962074696410000000, 4319.48707386195200000000, 4320.51271486251240000000, 4283.07681834204230000000, 4430.25630192252170000000, 4465.64091644187010000000, 4752.30757609862390000000, 4308.20502285578280000000, 4091.79477173744680000000, 4393.33322590233180000000, 4459.48707043850570000000, 0.00000000000000000000, 4.00000000000000000000, 4.00000000000000000000, 4.00000000000000000000, 4.00000000000000000000, 4.00000000000000000000, 3.00000000000000000000, 4.00000000000000000000, 4.00000000000000000000, 4.00000000000000000000, 4.00000000000000000000, 4.00000000000000000000, 4.00000000000000000000, 4.00000000000000000000, 4.00000000000000000000, 4.00000000000000000000, 4.00000000000000000000, 1673.00000000000000000000, 1684.00000000000000000000, 0.00000000000000000000
32.00000000000000000000, 0.00000000000000000000, 4349.23066287821620000000, 4523.58963297355790000000, 4442.56399392925140000000, 5028.71782574976810000000, 4321.53835586307380000000, 4324.10245836447580000000, 4286.66656184400470000000, 4441.02553242841080000000, 4473.33322394607690000000, 4751.28193509806260000000, 4308.20502285578280000000, 4099.48707924165320000000, 4396.41014890401400000000, 4457.94860893766420000000, 0.00000000000000000000, 4.00000000000000000000, 4.00000000000000000000, 4.00000000000000000000, 4.00000000000000000000, 4.00000000000000000000, 3.00000000000000000000, 4.00000000000000000000, 4.00000000000000000000, 4.00000000000000000000, 4.00000000000000000000, 4.00000000000000000000, 4.00000000000000000000, 4.00000000000000000000, 4.00000000000000000000, 4.00000000000000000000, 4.00000000000000000000, 1671.00000000000000000000, 1684.00000000000000000000, 0.00000000000000000000
33.00000000000000000000, 0.00000000000000000000, 4359.48707288382410000000, 4533.84604297916580000000, 4445.12809643065430000000, 5038.46141525509670000000, 4323.58963786419460000000, 4311.28194585746500000000, 4265.12810083222760000000, 4434.35886592476530000000, 4470.76912144467500000000, 4749.74347359722200000000, 4309.74348435662340000000, 4105.12810474473740000000, 4394.87168740317340000000, 4456.41014743682260000000, 0.00000000000000000000, 4.00000000000000000000, 4.00000000000000000000, 4.00000000000000000000, 4.00000000000000000000, 4.00000000000000000000, 3.00000000000000000000, 4.00000000000000000000, 4.00000000000000000000, 4.00000000000000000000, 4.00000000000000000000, 4.00000000000000000000, 4.00000000000000000000, 4.00000000000000000000, 4.00000000000000000000, 4.00000000000000000000, 4.00000000000000000000, 1673.00000000000000000000, 1684.00000000000000000000, 0.00000000000000000000
34.00000000000000000000, 0.00000000000000000000, 4362.05117538522610000000, 4537.94860698140930000000, 4444.61527593037320000000, 5038.46141525509670000000, 4315.38450985970850000000, 4295.38451034877200000000, 4264.61528033194740000000, 4427.17937892083960000000, 4463.58963444074930000000, 4754.35885809974570000000, 4316.41015086026890000000, 4107.69220724613930000000, 4401.53835390681890000000, 4461.53835243962750000000, 0.00000000000000000000, 4.00000000000000000000, 4.00000000000000000000, 4.00000000000000000000, 4.00000000000000000000, 4.00000000000000000000, 3.00000000000000000000, 4.00000000000000000000, 4.00000000000000000000, 4.00000000000000000000, 4.00000000000000000000, 4.00000000000000000000, 4.00000000000000000000, 4.00000000000000000000, 4.00000000000000000000, 4.00000000000000000000, 4.00000000000000000000, 1671.00000000000000000000, 1684.00000000000000000000, 0.00000000000000000000
35.00000000000000000000, 0.00000000000000000000, 4373.33322639139530000000, 4544.10245298477460000000, 4452.82040393486020000000, 5043.58962025790060000000, 4308.20502285578280000000, 4293.84604884793040000000, 4282.56399784176210000000, 4428.20501992140000000000, 4457.43578843738400000000, 4756.41014010086660000000, 4323.58963786419460000000, 4119.48707875258880000000, 4412.30758441270700000000, 4475.38450594719870000000, 0.00000000000000000000, 4.00000000000000000000, 4.00000000000000000000, 4.00000000000000000000, 4.00000000000000000000, 4.00000000000000000000, 3.00000000000000000000, 4.00000000000000000000, 4.00000000000000000000, 4.00000000000000000000, 4.00000000000000000000, 4.00000000000000000000, 4.00000000000000000000, 4.00000000000000000000, 4.00000000000000000000, 4.00000000000000000000, 4.00000000000000000000, 1672.00000000000000000000, 1684.00000000000000000000, 0.00000000000000000000
36.00000000000000000000, 0.00000000000000000000, 4383.07681589672300000000, 4558.46142699262600000000, 4462.05117293990770000000, 5054.87167126406980000000, 4315.89733035998870000000, 4296.92297184961350000000, 4277.94861333923840000000, 4418.46143041607230000000, 4446.15373743121470000000, 4751.28193509806260000000, 4323.58963786419460000000, 4122.05118125399170000000, 4407.69219991018330000000, 4482.56399295112440000000, 0.00000000000000000000, 4.00000000000000000000, 4.00000000000000000000, 4.00000000000000000000, 4.00000000000000000000, 4.00000000000000000000, 3.00000000000000000000, 4.00000000000000000000, 4.00000000000000000000, 4.00000000000000000000, 4.00000000000000000000, 4.00000000000000000000, 4.00000000000000000000, 4.00000000000000000000, 4.00000000000000000000, 4.00000000000000000000, 4.00000000000000000000, 1671.00000000000000000000, 1682.00000000000000000000, 0.00000000000000000000
37.00000000000000000000, 0.00000000000000000000, 4371.28194439027360000000, 4555.89732449122400000000, 4457.94860893766420000000, 5049.74346626126500000000, 4322.56399686363420000000, 4294.35886934821160000000, 4260.51271632970380000000, 4406.66655890962280000000, 4436.92296842616720000000, 4743.58962759385670000000, 4317.94861236111050000000, 4109.23066874698090000000, 4398.97425140541600000000, 4471.79476244523540000000, 0.00000000000000000000, 4.00000000000000000000, 4.00000000000000000000, 4.00000000000000000000, 4.00000000000000000000, 4.00000000000000000000, 3.00000000000000000000, 4.00000000000000000000, 4.00000000000000000000, 4.00000000000000000000, 4.00000000000000000000, 4.00000000000000000000, 4.00000000000000000000, 4.00000000000000000000, 4.00000000000000000000, 4.00000000000000000000, 4.00000000000000000000, 1671.00000000000000000000, 1681.00000000000000000000, 0.00000000000000000000
38.00000000000000000000, 0.00000000000000000000, 4361.02553438466570000000, 4544.61527348505480000000, 4447.17937843177510000000, 5038.46141525509670000000, 4312.30758685802630000000, 4293.84604884793040000000, 4264.61528033194740000000, 4407.17937940990300000000, 4435.89732742560680000000, 4737.94860209077160000000, 4313.84604835886690000000, 4102.05118174305520000000, 4397.43578990457540000000, 4465.64091644187010000000, 0.00000000000000000000, 4.00000000000000000000, 4.00000000000000000000, 4.00000000000000000000, 4.00000000000000000000, 4.00000000000000000000, 3.00000000000000000000, 4.00000000000000000000, 4.00000000000000000000, 4.00000000000000000000, 4.00000000000000000000, 4.00000000000000000000, 4.00000000000000000000, 4.00000000000000000000, 4.00000000000000000000, 4.00000000000000000000, 4.00000000000000000000, 1672.00000000000000000000, 1681.00000000000000000000, 0.00000000000000000000
39.00000000000000000000, 0.00000000000000000000, 4367.17938038803090000000, 4548.71783748729830000000, 4446.15373743121470000000, 5040.51269725621750000000, 4306.15374085466100000000, 4299.99989485129570000000, 4276.41015183839680000000, 4417.43578941551100000000, 4445.64091693093450000000, 4744.10244809413690000000, 4316.41015086026890000000, 4106.66656624557890000000, 4398.97425140541600000000, 4476.92296744803930000000, 0.00000000000000000000, 4.00000000000000000000, 4.00000000000000000000, 4.00000000000000000000, 4.00000000000000000000, 4.00000000000000000000, 3.00000000000000000000, 4.00000000000000000000, 4.00000000000000000000, 4.00000000000000000000, 4.00000000000000000000, 4.00000000000000000000, 4.00000000000000000000, 4.00000000000000000000, 4.00000000000000000000, 4.00000000000000000000, 4.00000000000000000000, 1671.00000000000000000000, 1682.00000000000000000000, 0.00000000000000000000
40.00000000000000000000, 0.00000000000000000000, 4366.66655988774980000000, 4548.20501698701810000000, 4447.17937843177510000000, 5039.99987675593730000000, 4311.28194585746500000000, 4305.64092035438080000000, 4277.94861333923840000000, 4427.17937892083960000000, 4458.97424993822550000000, 4753.84603759946460000000, 4317.43579186083020000000, 4109.74348924726110000000, 4397.94861040485560000000, 4475.89732644747890000000, 0.00000000000000000000, 4.00000000000000000000, 4.00000000000000000000, 4.00000000000000000000, 4.00000000000000000000, 4.00000000000000000000, 3.00000000000000000000, 4.00000000000000000000, 4.00000000000000000000, 4.00000000000000000000, 4.00000000000000000000, 4.00000000000000000000, 4.00000000000000000000, 4.00000000000000000000, 4.00000000000000000000, 4.00000000000000000000, 4.00000000000000000000, 1672.00000000000000000000, 1681.00000000000000000000, 0.00000000000000000000
41.00000000000000000000, 0.00000000000000000000, 4356.92297038242210000000, 4535.38450448000730000000, 4439.48707092756920000000, 5028.71782574976810000000, 4310.25630485690450000000, 4308.71784335606300000000, 4277.43579283895720000000, 4434.87168642504550000000, 4462.05117293990770000000, 4751.28193509806260000000, 4309.23066385634320000000, 4103.07682274361560000000, 4386.66655939868630000000, 4458.46142943794440000000, 0.00000000000000000000, 4.00000000000000000000, 4.00000000000000000000, 4.00000000000000000000, 4.00000000000000000000, 4.00000000000000000000, 3.00000000000000000000, 4.00000000000000000000, 4.00000000000000000000, 4.00000000000000000000, 4.00000000000000000000, 4.00000000000000000000, 4.00000000000000000000, 4.00000000000000000000, 4.00000000000000000000, 4.00000000000000000000, 4.00000000000000000000, 1671.00000000000000000000, 1681.00000000000000000000, 0.00000000000000000000
42.00000000000000000000, 0.00000000000000000000, 4350.76912437905680000000, 4530.25629947720340000000, 4431.28194292308220000000, 5021.02551824556210000000, 4306.15374085466100000000, 4312.30758685802630000000, 4272.82040833643350000000, 4443.07681442953250000000, 4462.56399344018790000000, 4748.71783259666060000000, 4301.53835635213730000000, 4095.38451523940970000000, 4372.30758539083490000000, 4452.30758343458000000000, 0.00000000000000000000, 4.00000000000000000000, 4.00000000000000000000, 4.00000000000000000000, 4.00000000000000000000, 4.00000000000000000000, 3.00000000000000000000, 4.00000000000000000000, 4.00000000000000000000, 4.00000000000000000000, 4.00000000000000000000, 4.00000000000000000000, 4.00000000000000000000, 4.00000000000000000000, 4.00000000000000000000, 4.00000000000000000000, 4.00000000000000000000, 1671.00000000000000000000, 1682.00000000000000000000, 0.00000000000000000000
43.00000000000000000000, 0.00000000000000000000, 4350.76912437905680000000, 4536.41014548056770000000, 4434.35886592476530000000, 5021.53833874584230000000, 4311.28194585746500000000, 4311.28194585746500000000, 4264.61528033194740000000, 4443.58963492981270000000, 4475.38450594719870000000, 4759.48706310254970000000, 4307.17938185522140000000, 4098.97425874137210000000, 4375.38450839251710000000, 4458.46142943794440000000, 0.00000000000000000000, 4.00000000000000000000, 4.00000000000000000000, 4.00000000000000000000, 4.00000000000000000000, 4.00000000000000000000, 3.00000000000000000000, 4.00000000000000000000, 4.00000000000000000000, 4.00000000000000000000, 4.00000000000000000000, 4.00000000000000000000, 4.00000000000000000000, 4.00000000000000000000, 4.00000000000000000000, 4.00000000000000000000, 4.00000000000000000000, 1670.00000000000000000000, 1682.00000000000000000000, 0.00000000000000000000
44.00000000000000000000, 0.00000000000000000000, 4357.43579088270230000000, 4539.48706848225080000000, 4441.53835292869100000000, 5028.20500524948780000000, 4314.87168935942830000000, 4304.61527935381950000000, 4259.99989582942360000000, 4432.30758392364350000000, 4482.05117245084420000000, 4769.23065260787730000000, 4313.33322785858670000000, 4103.58964324389580000000, 4385.12809789784480000000, 4457.94860893766420000000, 0.00000000000000000000, 4.00000000000000000000, 4.00000000000000000000, 4.00000000000000000000, 4.00000000000000000000, 4.00000000000000000000, 3.00000000000000000000, 4.00000000000000000000, 4.00000000000000000000, 4.00000000000000000000, 4.00000000000000000000, 4.00000000000000000000, 4.00000000000000000000, 4.00000000000000000000, 4.00000000000000000000, 4.00000000000000000000, 4.00000000000000000000, 1672.00000000000000000000, 1680.00000000000000000000, 0.00000000000000000000
45.00000000000000000000, 0.00000000000000000000, 4358.97425238354390000000, 4537.94860698140930000000, 4439.48707092756920000000, 5028.71782574976810000000, 4312.30758685802630000000, 4302.56399735269770000000, 4262.05117783054540000000, 4428.71784042168020000000, 4473.84604444635720000000, 4765.12808860563380000000, 4307.69220235550260000000, 4101.02554074249380000000, 4378.97425189448040000000, 4456.41014743682260000000, 0.00000000000000000000, 4.00000000000000000000, 4.00000000000000000000, 4.00000000000000000000, 4.00000000000000000000, 4.00000000000000000000, 3.00000000000000000000, 4.00000000000000000000, 4.00000000000000000000, 4.00000000000000000000, 4.00000000000000000000, 4.00000000000000000000, 4.00000000000000000000, 4.00000000000000000000, 4.00000000000000000000, 4.00000000000000000000, 4.00000000000000000000, 1670.00000000000000000000, 1680.00000000000000000000, 0.00000000000000000000
46.00000000000000000000, 0.00000000000000000000, 4354.35886788102020000000, 4541.53835048337260000000, 4435.89732742560680000000, 5026.15372324836610000000, 4311.28194585746500000000, 4304.10245885353920000000, 4268.20502383390980000000, 4427.69219942111980000000, 4465.64091644187010000000, 4758.97424260226940000000, 4306.15374085466100000000, 4102.56400224333540000000, 4371.79476489055470000000, 4457.94860893766420000000, 0.00000000000000000000, 4.00000000000000000000, 4.00000000000000000000, 4.00000000000000000000, 4.00000000000000000000, 4.00000000000000000000, 3.00000000000000000000, 4.00000000000000000000, 4.00000000000000000000, 4.00000000000000000000, 4.00000000000000000000, 4.00000000000000000000, 4.00000000000000000000, 4.00000000000000000000, 4.00000000000000000000, 4.00000000000000000000, 4.00000000000000000000, 1672.00000000000000000000, 1681.00000000000000000000, 0.00000000000000000000
47.00000000000000000000, 0.00000000000000000000, 4360.51271388438540000000, 4550.25629898813900000000, 4440.51271192813060000000, 5033.33321025229180000000, 4310.76912535718470000000, 4301.02553585185710000000, 4262.05117783054540000000, 4404.61527690850110000000, 4453.84604493542070000000, 4756.41014010086660000000, 4313.33322785858670000000, 4108.20502774641950000000, 4376.41014939307840000000, 4462.56399344018790000000, 0.00000000000000000000, 4.00000000000000000000, 4.00000000000000000000, 4.00000000000000000000, 4.00000000000000000000, 4.00000000000000000000, 3.00000000000000000000, 4.00000000000000000000, 4.00000000000000000000, 4.00000000000000000000, 4.00000000000000000000, 4.00000000000000000000, 4.00000000000000000000, 4.00000000000000000000, 4.00000000000000000000, 4.00000000000000000000, 4.00000000000000000000, 1672.00000000000000000000, 1681.00000000000000000000, 0.00000000000000000000
48.00000000000000000000, 0.00000000000000000000, 4368.20502138859140000000, 4554.87168349066270000000, 4445.12809643065430000000, 5037.43577425453530000000, 4311.79476635774520000000, 4296.92297184961350000000, 4249.74348582381480000000, 4384.61527739756460000000, 4441.02553242841080000000, 4752.30757609862390000000, 4316.41015086026890000000, 4107.17938674585910000000, 4379.48707239476060000000, 4471.79476244523540000000, 0.00000000000000000000, 4.00000000000000000000, 4.00000000000000000000, 4.00000000000000000000, 4.00000000000000000000, 4.00000000000000000000, 3.00000000000000000000, 4.00000000000000000000, 4.00000000000000000000, 4.00000000000000000000, 4.00000000000000000000, 4.00000000000000000000, 4.00000000000000000000, 4.00000000000000000000, 4.00000000000000000000, 4.00000000000000000000, 4.00000000000000000000, 1672.00000000000000000000, 1682.00000000000000000000, 0.00000000000000000000
49.00000000000000000000, 0.00000000000000000000, 4362.56399588550630000000, 4552.30758098926070000000, 4442.56399392925140000000, 5032.82038975201160000000, 4313.33322785858670000000, 4298.97425385073530000000, 4254.87169082661880000000, 4397.94861040485560000000, 4443.07681442953250000000, 4753.33321709918440000000, 4315.89733035998870000000, 4110.25630974754130000000, 4381.02553389560220000000, 4475.89732644747890000000, 0.00000000000000000000, 4.00000000000000000000, 4.00000000000000000000, 4.00000000000000000000, 4.00000000000000000000, 4.00000000000000000000, 3.00000000000000000000, 4.00000000000000000000, 4.00000000000000000000, 4.00000000000000000000, 4.00000000000000000000, 4.00000000000000000000, 4.00000000000000000000, 4.00000000000000000000, 4.00000000000000000000, 4.00000000000000000000, 4.00000000000000000000, 1673.00000000000000000000, 1681.00000000000000000000, 0.00000000000000000000
50.00000000000000000000, 0.00000000000000000000, 4359.99989338410430000000, 4551.79476048898050000000, 4443.58963492981270000000, 5033.33321025229180000000, 4306.66656135494120000000, 4301.02553585185710000000, 4267.17938283334930000000, 4425.64091741999800000000, 4456.92296793710370000000, 4765.12808860563380000000, 4322.05117636335400000000, 4117.43579675146700000000, 4384.61527739756460000000, 4475.38450594719870000000, 0.00000000000000000000, 4.00000000000000000000, 4.00000000000000000000, 4.00000000000000000000, 4.00000000000000000000, 4.00000000000000000000, 3.00000000000000000000, 4.00000000000000000000, 4.00000000000000000000, 4.00000000000000000000, 4.00000000000000000000, 4.00000000000000000000, 4.00000000000000000000, 4.00000000000000000000, 4.00000000000000000000, 4.00000000000000000000, 4.00000000000000000000, 1672.00000000000000000000, 1683.00000000000000000000, 0.00000000000000000000
51.00000000000000000000, 0.00000000000000000000, 4362.05117538522610000000, 4553.84604249010230000000, 4444.61527593037320000000, 5032.30756925173140000000, 4299.99989485129570000000, 4299.99989485129570000000, 4266.66656233306910000000, 4438.97425042728900000000, 4470.76912144467500000000, 4775.38449861124260000000, 4322.56399686363420000000, 4114.87169425006500000000, 4385.12809789784480000000, 4470.25630094439480000000, 0.00000000000000000000, 4.00000000000000000000, 4.00000000000000000000, 4.00000000000000000000, 4.00000000000000000000, 4.00000000000000000000, 3.00000000000000000000, 4.00000000000000000000, 4.00000000000000000000, 4.00000000000000000000, 4.00000000000000000000, 4.00000000000000000000, 4.00000000000000000000, 4.00000000000000000000, 4.00000000000000000000, 4.00000000000000000000, 4.00000000000000000000, 1672.00000000000000000000, 1682.00000000000000000000, 0.00000000000000000000
52.00000000000000000000, 0.00000000000000000000, 4353.33322688045880000000, 4550.25629898813900000000, 4441.02553242841080000000, 5025.64090274808590000000, 4303.58963835325900000000, 4301.02553585185710000000, 4261.53835733026430000000, 4441.02553242841080000000, 4471.79476244523540000000, 4772.82039610984070000000, 4313.84604835886690000000, 4108.71784824670070000000, 4376.41014939307840000000, 4458.97424993822550000000, 0.00000000000000000000, 4.00000000000000000000, 4.00000000000000000000, 4.00000000000000000000, 4.00000000000000000000, 4.00000000000000000000, 3.00000000000000000000, 4.00000000000000000000, 4.00000000000000000000, 4.00000000000000000000, 4.00000000000000000000, 4.00000000000000000000, 4.00000000000000000000, 4.00000000000000000000, 4.00000000000000000000, 4.00000000000000000000, 4.00000000000000000000, 1672.00000000000000000000, 1681.00000000000000000000, 0.00000000000000000000
53.00000000000000000000, 0.00000000000000000000, 4346.66656037681420000000, 4546.66655548617650000000, 4441.02553242841080000000, 5025.12808224780570000000, 4308.71784335606300000000, 4303.07681785297880000000, 4264.61528033194740000000, 4444.10245543009300000000, 4467.17937794271170000000, 4771.79475510927930000000, 4310.76912535718470000000, 4106.15374574529870000000, 4370.76912388999340000000, 4456.92296793710370000000, 0.00000000000000000000, 4.00000000000000000000, 4.00000000000000000000, 4.00000000000000000000, 4.00000000000000000000, 4.00000000000000000000, 3.00000000000000000000, 4.00000000000000000000, 4.00000000000000000000, 4.00000000000000000000, 4.00000000000000000000, 4.00000000000000000000, 4.00000000000000000000, 4.00000000000000000000, 4.00000000000000000000, 4.00000000000000000000, 4.00000000000000000000, 1671.00000000000000000000, 1681.00000000000000000000, 0.00000000000000000000
54.00000000000000000000, 0.00000000000000000000, 4354.87168838130040000000, 4547.69219648673700000000, 4443.58963492981270000000, 5028.20500524948780000000, 4305.64092035438080000000, 4306.15374085466100000000, 4265.64092133250780000000, 4444.61527593037320000000, 4472.30758294551560000000, 4781.53834461460700000000, 4316.41015086026890000000, 4109.23066874698090000000, 4374.87168789223690000000, 4468.71783944355320000000, 0.00000000000000000000, 4.00000000000000000000, 4.00000000000000000000, 4.00000000000000000000, 4.00000000000000000000, 4.00000000000000000000, 3.00000000000000000000, 4.00000000000000000000, 4.00000000000000000000, 4.00000000000000000000, 4.00000000000000000000, 4.00000000000000000000, 4.00000000000000000000, 4.00000000000000000000, 4.00000000000000000000, 4.00000000000000000000, 4.00000000000000000000, 1671.00000000000000000000, 1682.00000000000000000000, 0.00000000000000000000
55.00000000000000000000, 0.00000000000000000000, 4361.02553438466570000000, 4557.94860649234580000000, 4443.58963492981270000000, 5032.30756925173140000000, 4304.10245885353920000000, 4308.71784335606300000000, 4266.15374183278800000000, 4437.94860942672770000000, 4476.92296744803930000000, 4785.12808811657030000000, 4323.58963786419460000000, 4113.33323274922440000000, 4381.53835439588240000000, 4475.38450594719870000000, 0.00000000000000000000, 4.00000000000000000000, 4.00000000000000000000, 4.00000000000000000000, 4.00000000000000000000, 4.00000000000000000000, 3.00000000000000000000, 4.00000000000000000000, 4.00000000000000000000, 4.00000000000000000000, 4.00000000000000000000, 4.00000000000000000000, 4.00000000000000000000, 4.00000000000000000000, 4.00000000000000000000, 4.00000000000000000000, 4.00000000000000000000, 1671.00000000000000000000, 1683.00000000000000000000, 0.00000000000000000000
56.00000000000000000000, 0.00000000000000000000, 4358.97425238354390000000, 4568.20501649795370000000, 4444.61527593037320000000, 5036.41013325397490000000, 4311.28194585746500000000, 4309.23066385634320000000, 4266.15374183278800000000, 4425.12809691971780000000, 4463.07681394046810000000, 4775.89731911152280000000, 4323.07681736391440000000, 4109.74348924726110000000, 4379.48707239476060000000, 4470.25630094439480000000, 0.00000000000000000000, 4.00000000000000000000, 4.00000000000000000000, 4.00000000000000000000, 4.00000000000000000000, 4.00000000000000000000, 3.00000000000000000000, 4.00000000000000000000, 4.00000000000000000000, 4.00000000000000000000, 4.00000000000000000000, 4.00000000000000000000, 4.00000000000000000000, 4.00000000000000000000, 4.00000000000000000000, 4.00000000000000000000, 4.00000000000000000000, 1670.00000000000000000000, 1684.00000000000000000000, 0.00000000000000000000
57.00000000000000000000, 0.00000000000000000000, 4359.48707288382410000000, 4564.10245249571020000000, 4447.69219893205630000000, 5033.33321025229180000000, 4313.33322785858670000000, 4304.61527935381950000000, 4256.92297282774050000000, 4414.35886641382880000000, 4447.69219893205630000000, 4768.20501160731690000000, 4315.38450985970850000000, 4102.05118174305520000000, 4371.28194439027360000000, 4462.56399344018790000000, 0.00000000000000000000, 4.00000000000000000000, 4.00000000000000000000, 4.00000000000000000000, 4.00000000000000000000, 4.00000000000000000000, 3.00000000000000000000, 4.00000000000000000000, 4.00000000000000000000, 4.00000000000000000000, 4.00000000000000000000, 4.00000000000000000000, 4.00000000000000000000, 4.00000000000000000000, 4.00000000000000000000, 4.00000000000000000000, 4.00000000000000000000, 1669.00000000000000000000, 1682.00000000000000000000, 0.00000000000000000000
58.00000000000000000000, 0.00000000000000000000, 4358.97425238354390000000, 4553.33322198982210000000, 4446.15373743121470000000, 5025.64090274808590000000, 4302.56399735269770000000, 4305.64092035438080000000, 4246.66656282213260000000, 4407.69219991018330000000, 4445.12809643065430000000, 4754.87167860002590000000, 4308.71784335606300000000, 4099.99989974193340000000, 4362.56399588550630000000, 4459.99989093878590000000, 0.00000000000000000000, 4.00000000000000000000, 4.00000000000000000000, 4.00000000000000000000, 4.00000000000000000000, 4.00000000000000000000, 3.00000000000000000000, 4.00000000000000000000, 4.00000000000000000000, 4.00000000000000000000, 4.00000000000000000000, 4.00000000000000000000, 4.00000000000000000000, 4.00000000000000000000, 4.00000000000000000000, 4.00000000000000000000, 4.00000000000000000000, 1668.00000000000000000000, 1683.00000000000000000000, 0.00000000000000000000
59.00000000000000000000, 0.00000000000000000000, 4354.35886788102020000000, 4549.74347848785870000000, 4443.07681442953250000000, 5023.58962074696410000000, 4293.33322834765020000000, 4307.69220235550260000000, 4243.58963982045040000000, 4402.05117440709910000000, 4442.56399392925140000000, 4741.53834559273490000000, 4309.23066385634320000000, 4102.56400224333540000000, 4354.87168838130040000000, 4462.05117293990770000000, 0.00000000000000000000, 4.00000000000000000000, 4.00000000000000000000, 4.00000000000000000000, 4.00000000000000000000, 4.00000000000000000000, 3.00000000000000000000, 4.00000000000000000000, 4.00000000000000000000, 4.00000000000000000000, 4.00000000000000000000, 4.00000000000000000000, 4.00000000000000000000, 4.00000000000000000000, 4.00000000000000000000, 4.00000000000000000000, 4.00000000000000000000, 1670.00000000000000000000, 1682.00000000000000000000, 0.00000000000000000000
60.00000000000000000000, 0.00000000000000000000, 4350.76912437905680000000, 4553.33322198982210000000, 4440.51271192813060000000, 5024.61526174752540000000, 4296.41015134933330000000, 4300.51271535157590000000, 4245.12810132129110000000, 4403.07681540765950000000, 4441.53835292869100000000, 4748.71783259666060000000, 4311.28194585746500000000, 4095.89733573968990000000, 4353.84604738073990000000, 4457.43578843738400000000, 0.00000000000000000000, 4.00000000000000000000, 4.00000000000000000000, 4.00000000000000000000, 4.00000000000000000000, 4.00000000000000000000, 3.00000000000000000000, 4.00000000000000000000, 4.00000000000000000000, 4.00000000000000000000, 4.00000000000000000000, 4.00000000000000000000, 4.00000000000000000000, 4.00000000000000000000, 4.00000000000000000000, 4.00000000000000000000, 4.00000000000000000000, 1669.00000000000000000000, 1683.00000000000000000000, 0.00000000000000000000
61.00000000000000000000, 0.00000000000000000000, 4349.23066287821620000000, 4552.30758098926070000000, 4433.33322492420390000000, 5023.58962074696410000000, 4297.43579234989370000000, 4297.94861285017400000000, 4245.64092182157130000000, 4411.28194341214660000000, 4447.69219893205630000000, 4758.46142210198830000000, 4302.05117685241750000000, 4086.15374623436220000000, 4352.82040638017860000000, 4445.64091693093450000000, 0.00000000000000000000, 4.00000000000000000000, 4.00000000000000000000, 4.00000000000000000000, 4.00000000000000000000, 4.00000000000000000000, 3.00000000000000000000, 4.00000000000000000000, 4.00000000000000000000, 4.00000000000000000000, 4.00000000000000000000, 4.00000000000000000000, 4.00000000000000000000, 4.00000000000000000000, 4.00000000000000000000, 4.00000000000000000000, 4.00000000000000000000, 1670.00000000000000000000, 1683.00000000000000000000, 0.00000000000000000000
62.00000000000000000000, 0.00000000000000000000, 4350.76912437905680000000, 4552.82040148954180000000, 4432.82040442392370000000, 5021.53833874584230000000, 4295.38451034877200000000, 4299.48707435101550000000, 4250.25630632409500000000, 4420.51271241719410000000, 4455.38450643626220000000, 4759.99988360282990000000, 4298.97425385073530000000, 4084.61528473352060000000, 4351.79476537961820000000, 4440.51271192813060000000, 0.00000000000000000000, 4.00000000000000000000, 4.00000000000000000000, 4.00000000000000000000, 4.00000000000000000000, 4.00000000000000000000, 3.00000000000000000000, 4.00000000000000000000, 4.00000000000000000000, 4.00000000000000000000, 4.00000000000000000000, 4.00000000000000000000, 4.00000000000000000000, 4.00000000000000000000, 4.00000000000000000000, 4.00000000000000000000, 4.00000000000000000000, 1670.00000000000000000000, 1683.00000000000000000000, 0.00000000000000000000
63.00000000000000000000, 0.00000000000000000000, 4357.43579088270230000000, 4557.43578599206560000000, 4442.56399392925140000000, 5027.17936424892740000000, 4303.07681785297880000000, 4296.41015134933330000000, 4259.48707532914250000000, 4433.33322492420390000000, 4465.12809594158990000000, 4765.12808860563380000000, 4309.23066385634320000000, 4085.64092573408150000000, 4353.84604738073990000000, 4445.64091693093450000000, 0.00000000000000000000, 4.00000000000000000000, 4.00000000000000000000, 4.00000000000000000000, 4.00000000000000000000, 4.00000000000000000000, 3.00000000000000000000, 4.00000000000000000000, 4.00000000000000000000, 4.00000000000000000000, 4.00000000000000000000, 4.00000000000000000000, 4.00000000000000000000, 4.00000000000000000000, 4.00000000000000000000, 4.00000000000000000000, 4.00000000000000000000, 1672.00000000000000000000, 1683.00000000000000000000, 0.00000000000000000000
64.00000000000000000000, 0.00000000000000000000, 4355.89732938186170000000, 4556.92296549178450000000, 4442.05117342897120000000, 5033.33321025229180000000, 4313.84604835886690000000, 4301.02553585185710000000, 4267.69220333362950000000, 4440.51271192813060000000, 4471.79476244523540000000, 4770.25629360843780000000, 4311.79476635774520000000, 4085.64092573408150000000, 4353.84604738073990000000, 4448.71783993261670000000, 400.00000000000000000000, 4.00000000000000000000, 4.00000000000000000000, 4.00000000000000000000, 4.00000000000000000000, 4.00000000000000000000, 3.00000000000000000000, 4.00000000000000000000, 4.00000000000000000000, 4.00000000000000000000, 4.00000000000000000000, 4.00000000000000000000, 4.00000000000000000000, 4.00000000000000000000, 4.00000000000000000000, 4.00000000000000000000, 4.00000000000000000000, 1671.00000000000000000000, 1684.00000000000000000000, 0.00000000000000000000
65.00000000000000000000, 0.00000000000000000000, 4342.56399637457070000000, 4555.89732449122400000000, 4429.23066092196130000000, 5025.64090274808590000000, 4309.23066385634320000000, 4311.28194585746500000000, 4266.66656233306910000000, 4434.87168642504550000000, 4468.20501894327300000000, 4767.17937060675560000000, 4301.53835635213730000000, 4081.53836173183840000000, 4350.25630387877660000000, 4441.53835292869100000000, 443.00000000000000000000, 4.00000000000000000000, 4.00000000000000000000, 4.00000000000000000000, 4.00000000000000000000, 4.00000000000000000000, 3.00000000000000000000, 4.00000000000000000000, 4.00000000000000000000, 4.00000000000000000000, 4.00000000000000000000, 4.00000000000000000000, 4.00000000000000000000, 4.00000000000000000000, 4.00000000000000000000, 4.00000000000000000000, 4.00000000000000000000, 1672.00000000000000000000, 1685.00000000000000000000, 0.00000000000000000000
66.00000000000000000000, 0.00000000000000000000, 4337.43579137176680000000, 4552.82040148954180000000, 4425.12809691971780000000, 5014.87167224219680000000, 4294.35886934821160000000, 4305.64092035438080000000, 4254.35887032633850000000, 4428.20501992140000000000, 4462.05117293990770000000, 4758.97424260226940000000, 4290.76912584624820000000, 4075.89733622875380000000, 4338.97425287260740000000, 4429.23066092196130000000, 409.00000000000000000000, 4.00000000000000000000, 4.00000000000000000000, 4.00000000000000000000, 4.00000000000000000000, 4.00000000000000000000, 3.00000000000000000000, 4.00000000000000000000, 4.00000000000000000000, 4.00000000000000000000, 4.00000000000000000000, 4.00000000000000000000, 4.00000000000000000000, 4.00000000000000000000, 4.00000000000000000000, 4.00000000000000000000, 4.00000000000000000000, 1674.00000000000000000000, 1684.00000000000000000000, 0.00000000000000000000
67.00000000000000000000, 0.00000000000000000000, 4339.99989387316870000000, 4544.10245298477460000000, 4426.66655842055840000000, 5011.28192874023440000000, 4291.28194634652850000000, 4292.82040784737000000000, 4242.56399881988910000000, 4421.02553291747430000000, 4453.84604493542070000000, 4751.28193509806260000000, 4288.20502334484630000000, 4073.33323372735140000000, 4329.23066336727970000000, 4425.12809691971780000000, 452.00000000000000000000, 4.00000000000000000000, 4.00000000000000000000, 4.00000000000000000000, 4.00000000000000000000, 4.00000000000000000000, 3.00000000000000000000, 4.00000000000000000000, 4.00000000000000000000, 4.00000000000000000000, 4.00000000000000000000, 4.00000000000000000000, 4.00000000000000000000, 4.00000000000000000000, 4.00000000000000000000, 4.00000000000000000000, 4.00000000000000000000, 1674.00000000000000000000, 1685.00000000000000000000, 0.00000000000000000000
68.00000000000000000000, 0.00000000000000000000, 4339.99989387316870000000, 4544.10245298477460000000, 4426.66655842055840000000, 5010.76910823995330000000, 4297.94861285017400000000, 4294.87168984849180000000, 4241.53835781932870000000, 4413.84604591354860000000, 4448.71783993261670000000, 4753.84603759946460000000, 4294.87168984849180000000, 4078.46143873015580000000, 4337.43579137176680000000, 4434.87168642504550000000, 467.00000000000000000000, 4.00000000000000000000, 4.00000000000000000000, 4.00000000000000000000, 4.00000000000000000000, 4.00000000000000000000, 3.00000000000000000000, 4.00000000000000000000, 4.00000000000000000000, 4.00000000000000000000, 4.00000000000000000000, 4.00000000000000000000, 4.00000000000000000000, 4.00000000000000000000, 4.00000000000000000000, 4.00000000000000000000, 4.00000000000000000000, 1676.00000000000000000000, 1683.00000000000000000000, 0.00000000000000000000
69.00000000000000000000, 0.00000000000000000000, 4340.51271437344890000000, 4548.20501698701810000000, 4428.20501992140000000000, 5011.79474924051460000000, 4297.94861285017400000000, 4311.28194585746500000000, 4251.28194732465640000000, 4423.58963541887620000000, 4454.35886543570180000000, 4763.07680660451210000000, 4301.02553585185710000000, 4084.61528473352060000000, 4346.66656037681420000000, 4439.48707092756920000000, 318.00000000000000000000, 4.00000000000000000000, 4.00000000000000000000, 4.00000000000000000000, 4.00000000000000000000, 4.00000000000000000000, 3.00000000000000000000, 4.00000000000000000000, 4.00000000000000000000, 4.00000000000000000000, 4.00000000000000000000, 4.00000000000000000000, 4.00000000000000000000, 4.00000000000000000000, 4.00000000000000000000, 4.00000000000000000000, 4.00000000000000000000, 1675.00000000000000000000, 1683.00000000000000000000, 0.00000000000000000000
70.00000000000000000000, 0.00000000000000000000, 4343.07681687485090000000, 4546.66655548617650000000, 4431.28194292308220000000, 5016.92295424331860000000, 4298.97425385073530000000, 4319.48707386195200000000, 4255.38451132689990000000, 4431.28194292308220000000, 4458.97424993822550000000, 4762.56398610423180000000, 4298.46143335045510000000, 4086.66656673464240000000, 4344.61527837569250000000, 4435.89732742560680000000, 447.00000000000000000000, 4.00000000000000000000, 4.00000000000000000000, 4.00000000000000000000, 4.00000000000000000000, 4.00000000000000000000, 3.00000000000000000000, 4.00000000000000000000, 4.00000000000000000000, 4.00000000000000000000, 4.00000000000000000000, 4.00000000000000000000, 4.00000000000000000000, 4.00000000000000000000, 4.00000000000000000000, 4.00000000000000000000, 4.00000000000000000000, 1677.00000000000000000000, 1682.00000000000000000000, 0.00000000000000000000
71.00000000000000000000, 0.00000000000000000000, 4344.10245787541130000000, 4546.15373498589630000000, 4433.33322492420390000000, 5017.94859524387990000000, 4309.23066385634320000000, 4304.61527935381950000000, 4248.20502432297420000000, 4419.48707141663270000000, 4454.35886543570180000000, 4760.51270410311010000000, 4299.48707435101550000000, 4091.28195123716610000000, 4344.61527837569250000000, 4438.97425042728900000000, 422.00000000000000000000, 4.00000000000000000000, 4.00000000000000000000, 4.00000000000000000000, 4.00000000000000000000, 4.00000000000000000000, 3.00000000000000000000, 4.00000000000000000000, 4.00000000000000000000, 4.00000000000000000000, 4.00000000000000000000, 4.00000000000000000000, 4.00000000000000000000, 4.00000000000000000000, 4.00000000000000000000, 4.00000000000000000000, 4.00000000000000000000, 1677.00000000000000000000, 1681.00000000000000000000, 0.00000000000000000000
72.00000000000000000000, 0.00000000000000000000, 4346.66656037681420000000, 4555.89732449122400000000, 4436.41014792588700000000, 5019.48705674472060000000, 4313.84604835886690000000, 4291.79476684680960000000, 4245.12810132129110000000, 4415.38450741439010000000, 4456.41014743682260000000, 4769.23065260787730000000, 4307.17938185522140000000, 4092.30759223772700000000, 4350.25630387877660000000, 4443.58963492981270000000, 370.00000000000000000000, 4.00000000000000000000, 4.00000000000000000000, 4.00000000000000000000, 4.00000000000000000000, 4.00000000000000000000, 3.00000000000000000000, 4.00000000000000000000, 4.00000000000000000000, 4.00000000000000000000, 4.00000000000000000000, 4.00000000000000000000, 4.00000000000000000000, 4.00000000000000000000, 4.00000000000000000000, 4.00000000000000000000, 4.00000000000000000000, 1677.00000000000000000000, 1681.00000000000000000000, 0.00000000000000000000
73.00000000000000000000, 0.00000000000000000000, 4354.35886788102020000000, 4564.61527299599130000000, 4438.97425042728900000000, 5026.66654374864630000000, 4304.61527935381950000000, 4302.05117685241750000000, 4247.69220382269300000000, 4428.71784042168020000000, 4468.20501894327300000000, 4777.94860111264460000000, 4313.33322785858670000000, 4090.76913073688590000000, 4357.43579088270230000000, 4445.64091693093450000000, 412.00000000000000000000, 4.00000000000000000000, 4.00000000000000000000, 4.00000000000000000000, 4.00000000000000000000, 4.00000000000000000000, 3.00000000000000000000, 4.00000000000000000000, 4.00000000000000000000, 4.00000000000000000000, 4.00000000000000000000, 4.00000000000000000000, 4.00000000000000000000, 4.00000000000000000000, 4.00000000000000000000, 4.00000000000000000000, 4.00000000000000000000, 1676.00000000000000000000, 1680.00000000000000000000, 0.00000000000000000000
74.00000000000000000000, 0.00000000000000000000, 4358.46143188326370000000, 4566.66655499711310000000, 4441.53835292869100000000, 5028.20500524948780000000, 4297.94861285017400000000, 4311.28194585746500000000, 4252.30758832521680000000, 4435.89732742560680000000, 4470.25630094439480000000, 4783.58962661572880000000, 4315.38450985970850000000, 4091.79477173744680000000, 4362.56399588550630000000, 4451.28194243401870000000, 435.00000000000000000000, 4.00000000000000000000, 4.00000000000000000000, 4.00000000000000000000, 4.00000000000000000000, 4.00000000000000000000, 3.00000000000000000000, 4.00000000000000000000, 4.00000000000000000000, 4.00000000000000000000, 4.00000000000000000000, 4.00000000000000000000, 4.00000000000000000000, 4.00000000000000000000, 4.00000000000000000000, 4.00000000000000000000, 4.00000000000000000000, 1677.00000000000000000000, 1681.00000000000000000000, 0.00000000000000000000
75.00000000000000000000, 0.00000000000000000000, 4352.30758587989840000000, 4568.20501649795370000000, 4439.48707092756920000000, 5025.64090274808590000000, 4301.02553585185710000000, 4307.17938185522140000000, 4248.71784482325440000000, 4433.84604542448510000000, 4464.61527544130970000000, 4783.07680611544860000000, 4310.25630485690450000000, 4087.17938723492310000000, 4358.46143188326370000000, 4450.25630143345820000000, 400.00000000000000000000, 4.00000000000000000000, 4.00000000000000000000, 4.00000000000000000000, 4.00000000000000000000, 4.00000000000000000000, 3.00000000000000000000, 4.00000000000000000000, 4.00000000000000000000, 4.00000000000000000000, 4.00000000000000000000, 4.00000000000000000000, 4.00000000000000000000, 4.00000000000000000000, 4.00000000000000000000, 4.00000000000000000000, 4.00000000000000000000, 1675.00000000000000000000, 1681.00000000000000000000, 0.00000000000000000000
76.00000000000000000000, 0.00000000000000000000, 4349.74348337849640000000, 4568.20501649795370000000, 4433.33322492420390000000, 5025.12808224780570000000, 4298.97425385073530000000, 4304.10245885353920000000, 4238.97425531792670000000, 4430.76912242280200000000, 4458.46142943794440000000, 4771.28193460899910000000, 4301.53835635213730000000, 4078.97425923043600000000, 4347.69220137737470000000, 4441.02553242841080000000, 412.00000000000000000000, 4.00000000000000000000, 4.00000000000000000000, 4.00000000000000000000, 4.00000000000000000000, 4.00000000000000000000, 3.00000000000000000000, 4.00000000000000000000, 4.00000000000000000000, 4.00000000000000000000, 4.00000000000000000000, 4.00000000000000000000, 4.00000000000000000000, 4.00000000000000000000, 4.00000000000000000000, 4.00000000000000000000, 4.00000000000000000000, 1676.00000000000000000000, 1683.00000000000000000000, 0.00000000000000000000
77.00000000000000000000, 0.00000000000000000000, 4359.99989338410430000000, 4571.28193949963680000000, 4434.87168642504550000000, 5025.64090274808590000000, 4295.89733084905220000000, 4307.69220235550260000000, 4236.41015281652380000000, 4430.25630192252170000000, 4458.46142943794440000000, 4767.17937060675560000000, 4303.58963835325900000000, 4084.61528473352060000000, 4351.79476537961820000000, 4443.07681442953250000000, 394.00000000000000000000, 4.00000000000000000000, 4.00000000000000000000, 4.00000000000000000000, 4.00000000000000000000, 4.00000000000000000000, 3.00000000000000000000, 4.00000000000000000000, 4.00000000000000000000, 4.00000000000000000000, 4.00000000000000000000, 4.00000000000000000000, 4.00000000000000000000, 4.00000000000000000000, 4.00000000000000000000, 4.00000000000000000000, 4.00000000000000000000, 1675.00000000000000000000, 1682.00000000000000000000, 0.00000000000000000000
78.00000000000000000000, 0.00000000000000000000, 4363.58963688606760000000, 4573.33322150075860000000, 4442.56399392925140000000, 5026.66654374864630000000, 4301.02553585185710000000, 4311.79476635774520000000, 4238.97425531792670000000, 4429.23066092196130000000, 4463.07681394046810000000, 4779.48706261348620000000, 4310.76912535718470000000, 4094.35887423884880000000, 4358.97425238354390000000, 4448.71783993261670000000, 435.00000000000000000000, 4.00000000000000000000, 4.00000000000000000000, 4.00000000000000000000, 4.00000000000000000000, 4.00000000000000000000, 3.00000000000000000000, 4.00000000000000000000, 4.00000000000000000000, 4.00000000000000000000, 4.00000000000000000000, 4.00000000000000000000, 4.00000000000000000000, 4.00000000000000000000, 4.00000000000000000000, 4.00000000000000000000, 4.00000000000000000000, 1675.00000000000000000000, 1683.00000000000000000000, 0.00000000000000000000
79.00000000000000000000, 0.00000000000000000000, 4357.94861138298260000000, 4571.28193949963680000000, 4444.10245543009300000000, 5031.79474875145120000000, 4308.71784335606300000000, 4313.33322785858670000000, 4234.87169131568320000000, 4420.51271241719410000000, 4456.92296793710370000000, 4783.07680611544860000000, 4310.25630485690450000000, 4092.82041273800720000000, 4353.33322688045880000000, 4448.20501943233650000000, 400.00000000000000000000, 4.00000000000000000000, 4.00000000000000000000, 4.00000000000000000000, 4.00000000000000000000, 4.00000000000000000000, 3.00000000000000000000, 4.00000000000000000000, 4.00000000000000000000, 4.00000000000000000000, 4.00000000000000000000, 4.00000000000000000000, 4.00000000000000000000, 4.00000000000000000000, 4.00000000000000000000, 4.00000000000000000000, 4.00000000000000000000, 1675.00000000000000000000, 1682.00000000000000000000, 0.00000000000000000000
80.00000000000000000000, 0.00000000000000000000, 4357.94861138298260000000, 4569.74347799879520000000, 4437.94860942672770000000, 5031.79474875145120000000, 4309.74348435662340000000, 4308.20502285578280000000, 4228.20502481203770000000, 4406.15373840934260000000, 4444.10245543009300000000, 4769.23065260787730000000, 4306.66656135494120000000, 4092.82041273800720000000, 4348.20502187765490000000, 4450.76912193373850000000, 412.00000000000000000000, 4.00000000000000000000, 4.00000000000000000000, 4.00000000000000000000, 4.00000000000000000000, 4.00000000000000000000, 3.00000000000000000000, 4.00000000000000000000, 4.00000000000000000000, 4.00000000000000000000, 4.00000000000000000000, 4.00000000000000000000, 4.00000000000000000000, 4.00000000000000000000, 4.00000000000000000000, 4.00000000000000000000, 4.00000000000000000000, 1673.00000000000000000000, 1684.00000000000000000000, 0.00000000000000000000
81.00000000000000000000, 0.00000000000000000000, 4355.89732938186170000000, 4569.23065749851500000000, 4430.25630192252170000000, 5023.58962074696410000000, 4307.69220235550260000000, 4300.51271535157590000000, 4230.25630681315940000000, 4404.10245640822090000000, 4446.15373743121470000000, 4761.02552460339030000000, 4306.15374085466100000000, 4093.33323323828790000000, 4350.76912437905680000000, 4450.76912193373850000000, 394.00000000000000000000, 4.00000000000000000000, 4.00000000000000000000, 4.00000000000000000000, 4.00000000000000000000, 4.00000000000000000000, 3.00000000000000000000, 4.00000000000000000000, 4.00000000000000000000, 4.00000000000000000000, 4.00000000000000000000, 4.00000000000000000000, 4.00000000000000000000, 4.00000000000000000000, 4.00000000000000000000, 4.00000000000000000000, 4.00000000000000000000, 1673.00000000000000000000, 1683.00000000000000000000, 0.00000000000000000000
82.00000000000000000000, 0.00000000000000000000, 4350.25630387877660000000, 4567.69219599767350000000, 4429.74348142224150000000, 5019.99987724500170000000, 4305.64092035438080000000, 4298.97425385073530000000, 4235.38451181596340000000, 4412.82040491298720000000, 4456.92296793710370000000, 4766.66655010647540000000, 4303.07681785297880000000, 4090.76913073688590000000, 4346.15373987653310000000, 4446.66655793149490000000, 435.00000000000000000000, 4.00000000000000000000, 4.00000000000000000000, 4.00000000000000000000, 4.00000000000000000000, 4.00000000000000000000, 3.00000000000000000000, 4.00000000000000000000, 4.00000000000000000000, 4.00000000000000000000, 4.00000000000000000000, 4.00000000000000000000, 4.00000000000000000000, 4.00000000000000000000, 4.00000000000000000000, 4.00000000000000000000, 4.00000000000000000000, 1673.00000000000000000000, 1682.00000000000000000000, 0.00000000000000000000
83.00000000000000000000, 0.00000000000000000000, 4351.79476537961820000000, 4563.58963199543000000000, 4432.30758392364350000000, 5021.02551824556210000000, 4297.94861285017400000000, 4302.56399735269770000000, 4234.87169131568320000000, 4413.33322541326830000000, 4456.41014743682260000000, 4771.28193460899910000000, 4301.53835635213730000000, 4090.25631023660530000000, 4336.92297087148560000000, 4445.12809643065430000000, 400.00000000000000000000, 4.00000000000000000000, 4.00000000000000000000, 4.00000000000000000000, 4.00000000000000000000, 4.00000000000000000000, 3.00000000000000000000, 4.00000000000000000000, 4.00000000000000000000, 4.00000000000000000000, 4.00000000000000000000, 4.00000000000000000000, 4.00000000000000000000, 4.00000000000000000000, 4.00000000000000000000, 4.00000000000000000000, 4.00000000000000000000, 1673.00000000000000000000, 1683.00000000000000000000, 0.00000000000000000000
84.00000000000000000000, 0.00000000000000000000, 4353.84604738073990000000, 4564.61527299599130000000, 4430.25630192252170000000, 5023.07680024668390000000, 4294.35886934821160000000, 4305.64092035438080000000, 4229.74348631287920000000, 4408.20502041046350000000, 4453.33322443514040000000, 4768.71783210759710000000, 4305.12809985409970000000, 4086.66656673464240000000, 4337.43579137176680000000, 4444.61527593037320000000, 412.00000000000000000000, 4.00000000000000000000, 4.00000000000000000000, 4.00000000000000000000, 4.00000000000000000000, 4.00000000000000000000, 3.00000000000000000000, 4.00000000000000000000, 4.00000000000000000000, 4.00000000000000000000, 4.00000000000000000000, 4.00000000000000000000, 4.00000000000000000000, 4.00000000000000000000, 4.00000000000000000000, 4.00000000000000000000, 4.00000000000000000000, 1671.00000000000000000000, 1682.00000000000000000000, 0.00000000000000000000
85.00000000000000000000, 0.00000000000000000000, 4351.28194487933800000000, 4568.71783699823390000000, 4428.20501992140000000000, 5023.58962074696410000000, 4298.97425385073530000000, 4304.61527935381950000000, 4229.74348631287920000000, 4414.87168691410900000000, 4459.99989093878590000000, 4771.28193460899910000000, 4306.66656135494120000000, 4081.53836173183840000000, 4340.51271437344890000000, 4441.53835292869100000000, 394.00000000000000000000, 4.00000000000000000000, 4.00000000000000000000, 4.00000000000000000000, 4.00000000000000000000, 4.00000000000000000000, 3.00000000000000000000, 4.00000000000000000000, 4.00000000000000000000, 4.00000000000000000000, 4.00000000000000000000, 4.00000000000000000000, 4.00000000000000000000, 4.00000000000000000000, 4.00000000000000000000, 4.00000000000000000000, 4.00000000000000000000, 1672.00000000000000000000, 1682.00000000000000000000, 0.00000000000000000000
86.00000000000000000000, 0.00000000000000000000, 4353.84604738073990000000, 4570.25629849907550000000, 4429.74348142224150000000, 5025.12808224780570000000, 4302.56399735269770000000, 4304.61527935381950000000, 4229.74348631287920000000, 4425.64091741999800000000, 4465.64091644187010000000, 4780.51270361404660000000, 4309.74348435662340000000, 4087.69220773520330000000, 4342.05117587429050000000, 4442.05117342897120000000, 435.00000000000000000000, 4.00000000000000000000, 4.00000000000000000000, 4.00000000000000000000, 4.00000000000000000000, 4.00000000000000000000, 3.00000000000000000000, 4.00000000000000000000, 4.00000000000000000000, 4.00000000000000000000, 4.00000000000000000000, 4.00000000000000000000, 4.00000000000000000000, 4.00000000000000000000, 4.00000000000000000000, 4.00000000000000000000, 4.00000000000000000000, 1670.00000000000000000000, 1683.00000000000000000000, 0.00000000000000000000
87.00000000000000000000, 0.00000000000000000000, 4355.38450888158060000000, 4570.25629849907550000000, 4429.23066092196130000000, 5025.64090274808590000000, 4305.12809985409970000000, 4310.25630485690450000000, 4221.02553780811190000000, 4425.64091741999800000000, 4462.56399344018790000000, 4775.38449861124260000000, 4313.33322785858670000000, 4091.79477173744680000000, 4337.94861187204700000000, 4443.07681442953250000000, 400.00000000000000000000, 4.00000000000000000000, 4.00000000000000000000, 4.00000000000000000000, 4.00000000000000000000, 4.00000000000000000000, 3.00000000000000000000, 4.00000000000000000000, 4.00000000000000000000, 4.00000000000000000000, 4.00000000000000000000, 4.00000000000000000000, 4.00000000000000000000, 4.00000000000000000000, 4.00000000000000000000, 4.00000000000000000000, 4.00000000000000000000, 1671.00000000000000000000, 1685.00000000000000000000, 0.00000000000000000000
88.00000000000000000000, 0.00000000000000000000, 4352.82040638017860000000, 4569.74347799879520000000, 4429.74348142224150000000, 5023.58962074696410000000, 4309.74348435662340000000, 4311.28194585746500000000, 4216.41015330558820000000, 4424.61527641943760000000, 4456.41014743682260000000, 4764.61526810535360000000, 4310.76912535718470000000, 4084.10246423324040000000, 4332.30758636896190000000, 4441.02553242841080000000, 412.00000000000000000000, 4.00000000000000000000, 4.00000000000000000000, 4.00000000000000000000, 4.00000000000000000000, 4.00000000000000000000, 3.00000000000000000000, 4.00000000000000000000, 4.00000000000000000000, 4.00000000000000000000, 4.00000000000000000000, 4.00000000000000000000, 4.00000000000000000000, 4.00000000000000000000, 4.00000000000000000000, 4.00000000000000000000, 4.00000000000000000000, 1670.00000000000000000000, 1684.00000000000000000000, 0.00000000000000000000
89.00000000000000000000, 0.00000000000000000000, 4357.43579088270230000000, 4575.38450350187940000000, 4433.33322492420390000000, 5025.12808224780570000000, 4305.64092035438080000000, 4304.10245885353920000000, 4217.94861480642880000000, 4422.56399441831580000000, 4450.25630143345820000000, 4765.12808860563380000000, 4310.76912535718470000000, 4085.12810523380130000000, 4336.41015037120540000000, 4443.58963492981270000000, 394.00000000000000000000, 4.00000000000000000000, 4.00000000000000000000, 4.00000000000000000000, 4.00000000000000000000, 4.00000000000000000000, 3.00000000000000000000, 4.00000000000000000000, 4.00000000000000000000, 4.00000000000000000000, 4.00000000000000000000, 4.00000000000000000000, 4.00000000000000000000, 4.00000000000000000000, 4.00000000000000000000, 4.00000000000000000000, 4.00000000000000000000, 1669.00000000000000000000, 1685.00000000000000000000, 0.00000000000000000000
90.00000000000000000000, 0.00000000000000000000, 4359.48707288382410000000, 4575.89732400216050000000, 4435.89732742560680000000, 5024.10244124724430000000, 4296.41015134933330000000, 4299.48707435101550000000, 4221.02553780811190000000, 4413.33322541326830000000, 4444.61527593037320000000, 4758.97424260226940000000, 4307.69220235550260000000, 4091.79477173744680000000, 4335.38450937064500000000, 4446.15373743121470000000, 435.00000000000000000000, 4.00000000000000000000, 4.00000000000000000000, 4.00000000000000000000, 4.00000000000000000000, 4.00000000000000000000, 3.00000000000000000000, 4.00000000000000000000, 4.00000000000000000000, 4.00000000000000000000, 4.00000000000000000000, 4.00000000000000000000, 4.00000000000000000000, 4.00000000000000000000, 4.00000000000000000000, 4.00000000000000000000, 4.00000000000000000000, 1671.00000000000000000000, 1684.00000000000000000000, 0.00000000000000000000
91.00000000000000000000, 0.00000000000000000000, 4356.41014988214190000000, 4569.74347799879520000000, 4435.89732742560680000000, 5017.43577474359880000000, 4292.30758734708980000000, 4301.53835635213730000000, 4228.71784531231790000000, 4412.30758441270700000000, 4448.20501943233650000000, 4750.25629409750220000000, 4299.48707435101550000000, 4090.76913073688590000000, 4324.61527886475600000000, 4443.07681442953250000000, 400.00000000000000000000, 4.00000000000000000000, 4.00000000000000000000, 4.00000000000000000000, 4.00000000000000000000, 4.00000000000000000000, 3.00000000000000000000, 4.00000000000000000000, 4.00000000000000000000, 4.00000000000000000000, 4.00000000000000000000, 4.00000000000000000000, 4.00000000000000000000, 4.00000000000000000000, 4.00000000000000000000, 4.00000000000000000000, 4.00000000000000000000, 1669.00000000000000000000, 1685.00000000000000000000, 0.00000000000000000000
92.00000000000000000000, 0.00000000000000000000, 4359.48707288382410000000, 4574.87168300159920000000, 4437.94860942672770000000, 5019.48705674472060000000, 4296.41015134933330000000, 4306.15374085466100000000, 4234.87169131568320000000, 4421.53835341775450000000, 4459.48707043850570000000, 4761.02552460339030000000, 4304.61527935381950000000, 4090.25631023660530000000, 4328.71784286699950000000, 4446.15373743121470000000, 412.00000000000000000000, 4.00000000000000000000, 4.00000000000000000000, 4.00000000000000000000, 4.00000000000000000000, 4.00000000000000000000, 3.00000000000000000000, 4.00000000000000000000, 4.00000000000000000000, 4.00000000000000000000, 4.00000000000000000000, 4.00000000000000000000, 4.00000000000000000000, 4.00000000000000000000, 4.00000000000000000000, 4.00000000000000000000, 4.00000000000000000000, 1671.00000000000000000000, 1685.00000000000000000000, 0.00000000000000000000
93.00000000000000000000, 0.00000000000000000000, 4359.48707288382410000000, 4580.51270850468430000000, 4435.89732742560680000000, 5023.58962074696410000000, 4304.10245885353920000000, 4312.82040735830650000000, 4232.30758881428120000000, 4421.53835341775450000000, 4465.12809594158990000000, 4770.76911410871890000000, 4308.20502285578280000000, 4089.74348973632500000000, 4332.30758636896190000000, 4449.74348093317800000000, 394.00000000000000000000, 4.00000000000000000000, 4.00000000000000000000, 4.00000000000000000000, 4.00000000000000000000, 4.00000000000000000000, 3.00000000000000000000, 4.00000000000000000000, 4.00000000000000000000, 4.00000000000000000000, 4.00000000000000000000, 4.00000000000000000000, 4.00000000000000000000, 4.00000000000000000000, 4.00000000000000000000, 4.00000000000000000000, 4.00000000000000000000, 1671.00000000000000000000, 1685.00000000000000000000, 0.00000000000000000000
94.00000000000000000000, 0.00000000000000000000, 4349.23066287821620000000, 4568.20501649795370000000, 4427.69219942111980000000, 5015.89731324275820000000, 4304.61527935381950000000, 4311.79476635774520000000, 4230.25630681315940000000, 4420.51271241719410000000, 4466.15373694215120000000, 4770.25629360843780000000, 4297.43579234989370000000, 4083.58964373295980000000, 4319.48707386195200000000, 4441.53835292869100000000, 435.00000000000000000000, 4.00000000000000000000, 4.00000000000000000000, 4.00000000000000000000, 4.00000000000000000000, 4.00000000000000000000, 3.00000000000000000000, 4.00000000000000000000, 4.00000000000000000000, 4.00000000000000000000, 4.00000000000000000000, 4.00000000000000000000, 4.00000000000000000000, 4.00000000000000000000, 4.00000000000000000000, 4.00000000000000000000, 4.00000000000000000000, 1672.00000000000000000000, 1685.00000000000000000000, 0.00000000000000000000
95.00000000000000000000, 0.00000000000000000000, 4353.84604738073990000000, 4568.71783699823390000000, 4430.76912242280200000000, 5016.41013374303840000000, 4297.43579234989370000000, 4307.17938185522140000000, 4230.25630681315940000000, 4427.17937892083960000000, 4467.17937794271170000000, 4776.41013961180310000000, 4301.53835635213730000000, 4088.20502823548350000000, 4319.99989436223220000000, 4442.05117342897120000000, 400.00000000000000000000, 4.00000000000000000000, 4.00000000000000000000, 4.00000000000000000000, 4.00000000000000000000, 4.00000000000000000000, 3.00000000000000000000, 4.00000000000000000000, 4.00000000000000000000, 4.00000000000000000000, 4.00000000000000000000, 4.00000000000000000000, 4.00000000000000000000, 4.00000000000000000000, 4.00000000000000000000, 4.00000000000000000000, 4.00000000000000000000, 1672.00000000000000000000, 1685.00000000000000000000, 0.00000000000000000000
96.00000000000000000000, 0.00000000000000000000, 4368.20502138859140000000, 4577.43578550300120000000, 4443.07681442953250000000, 5025.12808224780570000000, 4293.84604884793040000000, 4309.74348435662340000000, 4231.79476831400010000000, 4429.23066092196130000000, 4465.12809594158990000000, 4785.12808811657030000000, 4316.41015086026890000000, 4102.05118174305520000000, 4335.89732987092520000000, 4457.94860893766420000000, 412.00000000000000000000, 4.00000000000000000000, 4.00000000000000000000, 4.00000000000000000000, 4.00000000000000000000, 4.00000000000000000000, 3.00000000000000000000, 4.00000000000000000000, 4.00000000000000000000, 4.00000000000000000000, 4.00000000000000000000, 4.00000000000000000000, 4.00000000000000000000, 4.00000000000000000000, 4.00000000000000000000, 4.00000000000000000000, 4.00000000000000000000, 1671.00000000000000000000, 1684.00000000000000000000, 0.00000000000000000000
97.00000000000000000000, 0.00000000000000000000, 4367.17938038803090000000, 4574.35886250131900000000, 4445.12809643065430000000, 5024.61526174752540000000, 4299.99989485129570000000, 4309.74348435662340000000, 4231.28194781371990000000, 4424.61527641943760000000, 4461.02553193934640000000, 4779.99988311376640000000, 4314.35886885914720000000, 4102.05118174305520000000, 4339.48707337288760000000, 4464.10245494102950000000, 394.00000000000000000000, 4.00000000000000000000, 4.00000000000000000000, 4.00000000000000000000, 4.00000000000000000000, 4.00000000000000000000, 3.00000000000000000000, 4.00000000000000000000, 4.00000000000000000000, 4.00000000000000000000, 4.00000000000000000000, 4.00000000000000000000, 4.00000000000000000000, 4.00000000000000000000, 4.00000000000000000000, 4.00000000000000000000, 4.00000000000000000000, 1672.00000000000000000000, 1685.00000000000000000000, 0.00000000000000000000
98.00000000000000000000, 0.00000000000000000000, 4366.15373938746960000000, 4583.58963150636650000000, 4442.05117342897120000000, 5028.71782574976810000000, 4306.66656135494120000000, 4305.64092035438080000000, 4219.99989680755060000000, 4415.89732791467030000000, 4458.97424993822550000000, 4771.28193460899910000000, 4309.23066385634320000000, 4093.33323323828790000000, 4332.82040686924300000000, 4457.43578843738400000000, 435.00000000000000000000, 4.00000000000000000000, 4.00000000000000000000, 4.00000000000000000000, 4.00000000000000000000, 4.00000000000000000000, 3.00000000000000000000, 4.00000000000000000000, 4.00000000000000000000, 4.00000000000000000000, 4.00000000000000000000, 4.00000000000000000000, 4.00000000000000000000, 4.00000000000000000000, 4.00000000000000000000, 4.00000000000000000000, 4.00000000000000000000, 1672.00000000000000000000, 1684.00000000000000000000, 0.00000000000000000000
99.00000000000000000000, 0.00000000000000000000, 4370.76912388999340000000, 4593.84604151197440000000, 4445.12809643065430000000, 5035.38449225341360000000, 4301.53835635213730000000, 4306.15374085466100000000, 4212.30758930334470000000, 4406.66655890962280000000, 4451.79476293429890000000, 4767.69219110703580000000, 4311.28194585746500000000, 4093.33323323828790000000, 4332.82040686924300000000, 4455.38450643626220000000, 400.00000000000000000000, 4.00000000000000000000, 4.00000000000000000000, 4.00000000000000000000, 4.00000000000000000000, 4.00000000000000000000, 3.00000000000000000000, 4.00000000000000000000, 4.00000000000000000000, 4.00000000000000000000, 4.00000000000000000000, 4.00000000000000000000, 4.00000000000000000000, 4.00000000000000000000, 4.00000000000000000000, 4.00000000000000000000, 4.00000000000000000000, 1672.00000000000000000000, 1681.00000000000000000000, 0.00000000000000000000
100.00000000000000000000, 0.00000000000000000000, 4360.51271388438540000000, 4576.92296500272100000000, 4438.97425042728900000000, 5027.17936424892740000000, 4294.35886934821160000000, 4307.17938185522140000000, 4222.56399930895260000000, 4404.61527690850110000000, 4443.58963492981270000000, 4762.56398610423180000000, 4302.56399735269770000000, 4089.23066923604440000000, 4325.64091986531640000000, 4445.64091693093450000000, 412.00000000000000000000, 4.00000000000000000000, 4.00000000000000000000, 4.00000000000000000000, 4.00000000000000000000, 4.00000000000000000000, 3.00000000000000000000, 4.00000000000000000000, 4.00000000000000000000, 4.00000000000000000000, 4.00000000000000000000, 4.00000000000000000000, 4.00000000000000000000, 4.00000000000000000000, 4.00000000000000000000, 4.00000000000000000000, 4.00000000000000000000, 1671.00000000000000000000, 1680.00000000000000000000, 0.00000000000000000000
101.00000000000000000000, 0.00000000000000000000, 4347.17938087709440000000, 4563.58963199543000000000, 4427.17937892083960000000, 5016.41013374303840000000, 4296.92297184961350000000, 4309.23066385634320000000, 4231.28194781371990000000, 4407.17937940990300000000, 4447.69219893205630000000, 4758.97424260226940000000, 4291.28194634652850000000, 4074.87169522819290000000, 4309.23066385634320000000, 4431.28194292308220000000, 394.00000000000000000000, 4.00000000000000000000, 4.00000000000000000000, 4.00000000000000000000, 4.00000000000000000000, 4.00000000000000000000, 3.00000000000000000000, 4.00000000000000000000, 4.00000000000000000000, 4.00000000000000000000, 4.00000000000000000000, 4.00000000000000000000, 4.00000000000000000000, 4.00000000000000000000, 4.00000000000000000000, 4.00000000000000000000, 4.00000000000000000000, 1673.00000000000000000000, 1680.00000000000000000000, 0.00000000000000000000
102.00000000000000000000, 0.00000000000000000000, 4349.74348337849640000000, 4569.23065749851500000000, 4427.17937892083960000000, 5013.84603124163640000000, 4295.89733084905220000000, 4314.87168935942830000000, 4233.84605031512180000000, 4413.84604591354860000000, 4461.02553193934640000000, 4763.07680660451210000000, 4294.35886934821160000000, 4074.87169522819290000000, 4310.25630485690450000000, 4434.87168642504550000000, 435.00000000000000000000, 4.00000000000000000000, 4.00000000000000000000, 4.00000000000000000000, 4.00000000000000000000, 4.00000000000000000000, 3.00000000000000000000, 4.00000000000000000000, 4.00000000000000000000, 4.00000000000000000000, 4.00000000000000000000, 4.00000000000000000000, 4.00000000000000000000, 4.00000000000000000000, 4.00000000000000000000, 4.00000000000000000000, 4.00000000000000000000, 1670.00000000000000000000, 1680.00000000000000000000, 0.00000000000000000000
103.00000000000000000000, 0.00000000000000000000, 4350.25630387877660000000, 4569.74347799879520000000, 4428.71784042168020000000, 5014.87167224219680000000, 4292.30758734708980000000, 4313.84604835886690000000, 4242.56399881988910000000, 4431.28194292308220000000, 4478.97424944916110000000, 4778.46142161292480000000, 4301.53835635213730000000, 4087.69220773520330000000, 4319.48707386195200000000, 4441.53835292869100000000, 400.00000000000000000000, 4.00000000000000000000, 4.00000000000000000000, 4.00000000000000000000, 4.00000000000000000000, 4.00000000000000000000, 3.00000000000000000000, 4.00000000000000000000, 4.00000000000000000000, 4.00000000000000000000, 4.00000000000000000000, 4.00000000000000000000, 4.00000000000000000000, 4.00000000000000000000, 4.00000000000000000000, 4.00000000000000000000, 4.00000000000000000000, 1672.00000000000000000000, 1678.00000000000000000000, 0.00000000000000000000
104.00000000000000000000, 0.00000000000000000000, 4348.20502187765490000000, 4571.28193949963680000000, 4427.17937892083960000000, 5020.51269774528190000000, 4305.64092035438080000000, 4310.25630485690450000000, 4245.12810132129110000000, 4445.12809643065430000000, 4492.30758245645210000000, 4794.87167762189800000000, 4305.12809985409970000000, 4090.76913073688590000000, 4315.89733035998870000000, 4440.51271192813060000000, 412.00000000000000000000, 4.00000000000000000000, 4.00000000000000000000, 4.00000000000000000000, 4.00000000000000000000, 4.00000000000000000000, 3.00000000000000000000, 4.00000000000000000000, 4.00000000000000000000, 4.00000000000000000000, 4.00000000000000000000, 4.00000000000000000000, 4.00000000000000000000, 4.00000000000000000000, 4.00000000000000000000, 4.00000000000000000000, 4.00000000000000000000, 1670.00000000000000000000, 1676.00000000000000000000, 0.00000000000000000000
105.00000000000000000000, 0.00000000000000000000, 4357.43579088270230000000, 4582.05117000552490000000, 4433.84604542448510000000, 5025.12808224780570000000, 4312.82040735830650000000, 4313.33322785858670000000, 4238.97425531792670000000, 4448.71783993261670000000, 4489.23065945476990000000, 4799.48706212442180000000, 4309.74348435662340000000, 4090.25631023660530000000, 4315.38450985970850000000, 4445.12809643065430000000, 394.00000000000000000000, 4.00000000000000000000, 4.00000000000000000000, 4.00000000000000000000, 4.00000000000000000000, 4.00000000000000000000, 3.00000000000000000000, 4.00000000000000000000, 4.00000000000000000000, 4.00000000000000000000, 4.00000000000000000000, 4.00000000000000000000, 4.00000000000000000000, 4.00000000000000000000, 4.00000000000000000000, 4.00000000000000000000, 4.00000000000000000000, 1670.00000000000000000000, 1676.00000000000000000000, 0.00000000000000000000
106.00000000000000000000, 0.00000000000000000000, 4363.58963688606760000000, 4583.07681100608620000000, 4437.43578892644750000000, 5023.58962074696410000000, 4300.51271535157590000000, 4309.74348435662340000000, 4231.79476831400010000000, 4447.69219893205630000000, 4479.99989044972240000000, 4798.46142112386130000000, 4312.82040735830650000000, 4092.30759223772700000000, 4324.61527886475600000000, 4449.74348093317800000000, 435.00000000000000000000, 4.00000000000000000000, 4.00000000000000000000, 4.00000000000000000000, 4.00000000000000000000, 4.00000000000000000000, 3.00000000000000000000, 4.00000000000000000000, 4.00000000000000000000, 4.00000000000000000000, 4.00000000000000000000, 4.00000000000000000000, 4.00000000000000000000, 4.00000000000000000000, 4.00000000000000000000, 4.00000000000000000000, 4.00000000000000000000, 1670.00000000000000000000, 1675.00000000000000000000, 0.00000000000000000000
107.00000000000000000000, 0.00000000000000000000, 4358.97425238354390000000, 4583.07681100608620000000, 4435.89732742560680000000, 5025.12808224780570000000, 4296.92297184961350000000, 4298.46143335045510000000, 4215.89733280530710000000, 4438.46142992700880000000, 4471.79476244523540000000, 4797.94860062358110000000, 4314.87168935942830000000, 4092.82041273800720000000, 4326.15374036559750000000, 4447.17937843177510000000, 400.00000000000000000000, 4.00000000000000000000, 4.00000000000000000000, 4.00000000000000000000, 4.00000000000000000000, 4.00000000000000000000, 3.00000000000000000000, 4.00000000000000000000, 4.00000000000000000000, 4.00000000000000000000, 4.00000000000000000000, 4.00000000000000000000, 4.00000000000000000000, 4.00000000000000000000, 4.00000000000000000000, 4.00000000000000000000, 4.00000000000000000000, 1669.00000000000000000000, 1676.00000000000000000000, 0.00000000000000000000
108.00000000000000000000, 0.00000000000000000000, 4357.43579088270230000000, 4586.66655450804860000000, 4438.46142992700880000000, 5026.66654374864630000000, 4301.02553585185710000000, 4293.33322834765020000000, 4204.10246129885760000000, 4417.94860991579210000000, 4453.84604493542070000000, 4785.64090861685050000000, 4311.28194585746500000000, 4092.30759223772700000000, 4319.48707386195200000000, 4446.66655793149490000000, 412.00000000000000000000, 4.00000000000000000000, 4.00000000000000000000, 4.00000000000000000000, 4.00000000000000000000, 4.00000000000000000000, 3.00000000000000000000, 4.00000000000000000000, 4.00000000000000000000, 4.00000000000000000000, 4.00000000000000000000, 4.00000000000000000000, 4.00000000000000000000, 4.00000000000000000000, 4.00000000000000000000, 4.00000000000000000000, 4.00000000000000000000, 1669.00000000000000000000, 1677.00000000000000000000, 0.00000000000000000000
109.00000000000000000000, 0.00000000000000000000, 4357.43579088270230000000, 4576.92296500272100000000, 4439.48707092756920000000, 5018.97423624444040000000, 4297.43579234989370000000, 4295.38451034877200000000, 4210.25630730222290000000, 4399.99989240597730000000, 4432.30758392364350000000, 4762.05116560395160000000, 4297.94861285017400000000, 4086.66656673464240000000, 4308.20502285578280000000, 4444.10245543009300000000, 394.00000000000000000000, 4.00000000000000000000, 4.00000000000000000000, 4.00000000000000000000, 4.00000000000000000000, 4.00000000000000000000, 3.00000000000000000000, 4.00000000000000000000, 4.00000000000000000000, 4.00000000000000000000, 4.00000000000000000000, 4.00000000000000000000, 4.00000000000000000000, 4.00000000000000000000, 4.00000000000000000000, 4.00000000000000000000, 4.00000000000000000000, 1669.00000000000000000000, 1678.00000000000000000000, 0.00000000000000000000
110.00000000000000000000, 0.00000000000000000000, 4355.38450888158060000000, 4567.69219599767350000000, 4433.33322492420390000000, 5014.87167224219680000000, 4293.84604884793040000000, 4299.99989485129570000000, 4218.46143530671000000000, 4402.56399490737930000000, 4432.82040442392370000000, 4757.43578110142790000000, 4298.97425385073530000000, 4083.58964373295980000000, 4305.12809985409970000000, 4441.02553242841080000000, 435.00000000000000000000, 4.00000000000000000000, 4.00000000000000000000, 4.00000000000000000000, 4.00000000000000000000, 4.00000000000000000000, 3.00000000000000000000, 4.00000000000000000000, 4.00000000000000000000, 4.00000000000000000000, 4.00000000000000000000, 4.00000000000000000000, 4.00000000000000000000, 4.00000000000000000000, 4.00000000000000000000, 4.00000000000000000000, 4.00000000000000000000, 1669.00000000000000000000, 1678.00000000000000000000, 0.00000000000000000000
111.00000000000000000000, 0.00000000000000000000, 4355.38450888158060000000, 4569.74347799879520000000, 4431.79476342336330000000, 5016.41013374303840000000, 4294.87168984849180000000, 4305.64092035438080000000, 4220.51271730783080000000, 4416.92296891523070000000, 4449.74348093317800000000, 4770.25629360843780000000, 4311.28194585746500000000, 4083.58964373295980000000, 4310.76912535718470000000, 4444.61527593037320000000, 400.00000000000000000000, 4.00000000000000000000, 4.00000000000000000000, 4.00000000000000000000, 4.00000000000000000000, 4.00000000000000000000, 3.00000000000000000000, 4.00000000000000000000, 4.00000000000000000000, 4.00000000000000000000, 4.00000000000000000000, 4.00000000000000000000, 4.00000000000000000000, 4.00000000000000000000, 4.00000000000000000000, 4.00000000000000000000, 4.00000000000000000000, 1670.00000000000000000000, 1679.00000000000000000000, 0.00000000000000000000
112.00000000000000000000, 0.00000000000000000000, 4346.66656037681420000000, 4559.48706799318640000000, 4428.20501992140000000000, 5010.76910823995330000000, 4294.35886934821160000000, 4311.28194585746500000000, 4226.66656331119610000000, 4424.61527641943760000000, 4461.02553193934640000000, 4771.28193460899910000000, 4301.53835635213730000000, 4074.35887472791230000000, 4299.99989485129570000000, 4435.89732742560680000000, 412.00000000000000000000, 4.00000000000000000000, 4.00000000000000000000, 4.00000000000000000000, 4.00000000000000000000, 4.00000000000000000000, 3.00000000000000000000, 4.00000000000000000000, 4.00000000000000000000, 4.00000000000000000000, 4.00000000000000000000, 4.00000000000000000000, 4.00000000000000000000, 4.00000000000000000000, 4.00000000000000000000, 4.00000000000000000000, 4.00000000000000000000, 1671.00000000000000000000, 1679.00000000000000000000, 0.00000000000000000000
113.00000000000000000000, 0.00000000000000000000, 4339.99989387316870000000, 4547.69219648673700000000, 4422.05117391803470000000, 5004.61526223658890000000, 4292.82040784737000000000, 4312.30758685802630000000, 4233.84605031512180000000, 4432.30758392364350000000, 4471.28194194495520000000, 4769.23065260787730000000, 4287.69220284456610000000, 4068.71784922482770000000, 4287.69220284456610000000, 4426.66655842055840000000, 394.00000000000000000000, 4.00000000000000000000, 4.00000000000000000000, 4.00000000000000000000, 4.00000000000000000000, 4.00000000000000000000, 3.00000000000000000000, 4.00000000000000000000, 4.00000000000000000000, 4.00000000000000000000, 4.00000000000000000000, 4.00000000000000000000, 4.00000000000000000000, 4.00000000000000000000, 4.00000000000000000000, 4.00000000000000000000, 4.00000000000000000000, 1673.00000000000000000000, 1681.00000000000000000000, 0.00000000000000000000
114.00000000000000000000, 0.00000000000000000000, 4345.64091937625290000000, 4561.53834999430820000000, 4424.10245591915650000000, 5007.69218523827110000000, 4293.33322834765020000000, 4309.74348435662340000000, 4227.69220431175750000000, 4444.10245543009300000000, 4482.05117245084420000000, 4779.48706261348620000000, 4298.46143335045510000000, 4073.33323372735140000000, 4298.97425385073530000000, 4435.38450692532570000000, 435.00000000000000000000, 4.00000000000000000000, 4.00000000000000000000, 4.00000000000000000000, 4.00000000000000000000, 4.00000000000000000000, 3.00000000000000000000, 4.00000000000000000000, 4.00000000000000000000, 4.00000000000000000000, 4.00000000000000000000, 4.00000000000000000000, 4.00000000000000000000, 4.00000000000000000000, 4.00000000000000000000, 4.00000000000000000000, 4.00000000000000000000, 1672.00000000000000000000, 1679.00000000000000000000, 0.00000000000000000000
115.00000000000000000000, 0.00000000000000000000, 4345.64091937625290000000, 4571.28193949963680000000, 4427.17937892083960000000, 5013.84603124163640000000, 4293.33322834765020000000, 4310.76912535718470000000, 4218.97425580699020000000, 4445.12809643065430000000, 4482.05117245084420000000, 4796.92295962301980000000, 4310.25630485690450000000, 4075.89733622875380000000, 4309.23066385634320000000, 4439.48707092756920000000, 400.00000000000000000000, 4.00000000000000000000, 4.00000000000000000000, 4.00000000000000000000, 4.00000000000000000000, 4.00000000000000000000, 3.00000000000000000000, 4.00000000000000000000, 4.00000000000000000000, 4.00000000000000000000, 4.00000000000000000000, 4.00000000000000000000, 4.00000000000000000000, 4.00000000000000000000, 4.00000000000000000000, 4.00000000000000000000, 4.00000000000000000000, 1673.00000000000000000000, 1680.00000000000000000000, 0.00000000000000000000
116.00000000000000000000, 0.00000000000000000000, 4348.71784237793510000000, 4566.15373449683190000000, 4434.35886592476530000000, 5020.51269774528190000000, 4294.35886934821160000000, 4308.71784335606300000000, 4242.05117831960890000000, 4445.12809643065430000000, 4481.02553145028290000000, 4809.23065162974940000000, 4312.82040735830650000000, 4085.12810523380130000000, 4310.76912535718470000000, 4445.64091693093450000000, 412.00000000000000000000, 4.00000000000000000000, 4.00000000000000000000, 4.00000000000000000000, 4.00000000000000000000, 4.00000000000000000000, 3.00000000000000000000, 4.00000000000000000000, 4.00000000000000000000, 4.00000000000000000000, 4.00000000000000000000, 4.00000000000000000000, 4.00000000000000000000, 4.00000000000000000000, 4.00000000000000000000, 4.00000000000000000000, 4.00000000000000000000, 1674.00000000000000000000, 1681.00000000000000000000, 0.00000000000000000000
117.00000000000000000000, 0.00000000000000000000, 4364.10245738634790000000, 4574.35886250131900000000, 4444.61527593037320000000, 5026.66654374864630000000, 4294.87168984849180000000, 4302.05117685241750000000, 4297.94861285017400000000, 4450.25630143345820000000, 4481.02553145028290000000, 4808.20501062918900000000, 4317.43579186083020000000, 4098.46143824109190000000, 4316.41015086026890000000, 4460.51271143906620000000, 394.00000000000000000000, 4.00000000000000000000, 4.00000000000000000000, 4.00000000000000000000, 4.00000000000000000000, 4.00000000000000000000, 3.00000000000000000000, 4.00000000000000000000, 4.00000000000000000000, 4.00000000000000000000, 4.00000000000000000000, 4.00000000000000000000, 4.00000000000000000000, 4.00000000000000000000, 4.00000000000000000000, 4.00000000000000000000, 4.00000000000000000000, 1675.00000000000000000000, 1683.00000000000000000000, 0.00000000000000000000
118.00000000000000000000, 0.00000000000000000000, 4359.99989338410430000000, 4578.97424700384270000000, 4439.48707092756920000000, 5023.07680024668390000000, 4288.71784384512650000000, 4299.48707435101550000000, 4326.66656086587770000000, 4434.35886592476530000000, 4462.56399344018790000000, 4789.23065211881390000000, 4307.17938185522140000000, 4084.10246423324040000000, 4304.61527935381950000000, 4448.20501943233650000000, 435.00000000000000000000, 4.00000000000000000000, 4.00000000000000000000, 4.00000000000000000000, 4.00000000000000000000, 4.00000000000000000000, 3.00000000000000000000, 4.00000000000000000000, 4.00000000000000000000, 4.00000000000000000000, 4.00000000000000000000, 4.00000000000000000000, 4.00000000000000000000, 4.00000000000000000000, 4.00000000000000000000, 4.00000000000000000000, 4.00000000000000000000, 1676.00000000000000000000, 1682.00000000000000000000, 0.00000000000000000000
119.00000000000000000000, 0.00000000000000000000, 4342.56399637457070000000, 4562.05117049458930000000, 4427.17937892083960000000, 5016.92295424331860000000, 4283.07681834204230000000, 4299.48707435101550000000, 4315.89733035998870000000, 4409.23066141102480000000, 4439.99989142784940000000, 4764.61526810535360000000, 4292.30758734708980000000, 4062.05118272118260000000, 4282.05117734148100000000, 4424.10245591915650000000, 400.00000000000000000000, 4.00000000000000000000, 4.00000000000000000000, 4.00000000000000000000, 4.00000000000000000000, 4.00000000000000000000, 3.00000000000000000000, 4.00000000000000000000, 4.00000000000000000000, 4.00000000000000000000, 4.00000000000000000000, 4.00000000000000000000, 4.00000000000000000000, 4.00000000000000000000, 4.00000000000000000000, 4.00000000000000000000, 4.00000000000000000000, 1675.00000000000000000000, 1684.00000000000000000000, 0.00000000000000000000
120.00000000000000000000, 0.00000000000000000000, 4345.12809887597270000000, 4551.28193998870030000000, 4428.20501992140000000000, 5015.38449274247710000000, 4285.12810034316410000000, 4303.58963835325900000000, 4320.51271486251240000000, 4409.74348191130500000000, 4438.97425042728900000000, 4758.46142210198830000000, 4295.89733084905220000000, 4065.64092622314550000000, 4282.56399784176210000000, 4429.23066092196130000000, 412.00000000000000000000, 4.00000000000000000000, 4.00000000000000000000, 4.00000000000000000000, 4.00000000000000000000, 4.00000000000000000000, 3.00000000000000000000, 4.00000000000000000000, 4.00000000000000000000, 4.00000000000000000000, 4.00000000000000000000, 4.00000000000000000000, 4.00000000000000000000, 4.00000000000000000000, 4.00000000000000000000, 4.00000000000000000000, 4.00000000000000000000, 1678.00000000000000000000, 1681.00000000000000000000, 0.00000000000000000000
121.00000000000000000000, 0.00000000000000000000, 4348.20502187765490000000, 4553.33322198982210000000, 4430.76912242280200000000, 5012.30756974079490000000, 4286.15374134372450000000, 4310.25630485690450000000, 4344.10245787541130000000, 4420.51271241719410000000, 4442.56399392925140000000, 4762.05116560395160000000, 4299.99989485129570000000, 4074.35887472791230000000, 4286.66656184400470000000, 4435.89732742560680000000, 394.00000000000000000000, 4.00000000000000000000, 4.00000000000000000000, 4.00000000000000000000, 4.00000000000000000000, 4.00000000000000000000, 3.00000000000000000000, 4.00000000000000000000, 4.00000000000000000000, 4.00000000000000000000, 4.00000000000000000000, 4.00000000000000000000, 4.00000000000000000000, 4.00000000000000000000, 4.00000000000000000000, 4.00000000000000000000, 4.00000000000000000000, 1676.00000000000000000000, 1680.00000000000000000000, 0.00000000000000000000
122.00000000000000000000, 0.00000000000000000000, 4339.48707337288760000000, 4550.25629898813900000000, 4426.66655842055840000000, 5007.17936473799090000000, 4285.64092084344430000000, 4311.28194585746500000000, 4350.25630387877660000000, 4422.56399441831580000000, 4443.58963492981270000000, 4767.69219110703580000000, 4293.84604884793040000000, 4071.28195172623010000000, 4276.41015183839680000000, 4426.15373792027820000000, 435.00000000000000000000, 4.00000000000000000000, 4.00000000000000000000, 4.00000000000000000000, 4.00000000000000000000, 4.00000000000000000000, 3.00000000000000000000, 4.00000000000000000000, 4.00000000000000000000, 4.00000000000000000000, 4.00000000000000000000, 4.00000000000000000000, 4.00000000000000000000, 4.00000000000000000000, 4.00000000000000000000, 4.00000000000000000000, 4.00000000000000000000, 1677.00000000000000000000, 1680.00000000000000000000, 0.00000000000000000000
123.00000000000000000000, 0.00000000000000000000, 4339.99989387316870000000, 4548.20501698701810000000, 4426.66655842055840000000, 5011.28192874023440000000, 4290.76912584624820000000, 4310.25630485690450000000, 4339.99989387316870000000, 4434.35886592476530000000, 4456.92296793710370000000, 4779.99988311376640000000, 4303.07681785297880000000, 4071.79477222651030000000, 4283.07681834204230000000, 4431.79476342336330000000, 400.00000000000000000000, 4.00000000000000000000, 4.00000000000000000000, 4.00000000000000000000, 4.00000000000000000000, 4.00000000000000000000, 3.00000000000000000000, 4.00000000000000000000, 4.00000000000000000000, 4.00000000000000000000, 4.00000000000000000000, 4.00000000000000000000, 4.00000000000000000000, 4.00000000000000000000, 4.00000000000000000000, 4.00000000000000000000, 4.00000000000000000000, 1677.00000000000000000000, 1680.00000000000000000000, 0.00000000000000000000
124.00000000000000000000, 0.00000000000000000000, 4346.66656037681420000000, 4558.46142699262600000000, 4429.74348142224150000000, 5021.02551824556210000000, 4296.92297184961350000000, 4312.82040735830650000000, 4324.61527886475600000000, 4448.71783993261670000000, 4471.79476244523540000000, 4793.84603662133760000000, 4315.89733035998870000000, 4081.53836173183840000000, 4299.48707435101550000000, 4443.58963492981270000000, 412.00000000000000000000, 4.00000000000000000000, 4.00000000000000000000, 4.00000000000000000000, 4.00000000000000000000, 4.00000000000000000000, 3.00000000000000000000, 4.00000000000000000000, 4.00000000000000000000, 4.00000000000000000000, 4.00000000000000000000, 4.00000000000000000000, 4.00000000000000000000, 4.00000000000000000000, 4.00000000000000000000, 4.00000000000000000000, 4.00000000000000000000, 1676.00000000000000000000, 1680.00000000000000000000, 0.00000000000000000000
125.00000000000000000000, 0.00000000000000000000, 4353.84604738073990000000, 4568.20501649795370000000, 4435.89732742560680000000, 5029.74346675032940000000, 4298.46143335045510000000, 4310.76912535718470000000, 4305.12809985409970000000, 4451.79476293429890000000, 4480.51271095000270000000, 4806.15372862806730000000, 4316.92297136055000000000, 4089.23066923604440000000, 4305.12809985409970000000, 4448.71783993261670000000, 394.00000000000000000000, 4.00000000000000000000, 4.00000000000000000000, 4.00000000000000000000, 4.00000000000000000000, 4.00000000000000000000, 3.00000000000000000000, 4.00000000000000000000, 4.00000000000000000000, 4.00000000000000000000, 4.00000000000000000000, 4.00000000000000000000, 4.00000000000000000000, 4.00000000000000000000, 4.00000000000000000000, 4.00000000000000000000, 4.00000000000000000000, 1675.00000000000000000000, 1679.00000000000000000000, 0.00000000000000000000
126.00000000000000000000, 0.00000000000000000000, 4358.97425238354390000000, 4570.76911899935570000000, 4443.58963492981270000000, 5032.82038975201160000000, 4298.46143335045510000000, 4306.15374085466100000000, 4290.76912584624820000000, 4452.82040393486020000000, 4493.33322345701340000000, 4822.05116413676020000000, 4321.53835586307380000000, 4091.28195123716610000000, 4311.28194585746500000000, 4455.38450643626220000000, 435.00000000000000000000, 4.00000000000000000000, 4.00000000000000000000, 4.00000000000000000000, 4.00000000000000000000, 4.00000000000000000000, 3.00000000000000000000, 4.00000000000000000000, 4.00000000000000000000, 4.00000000000000000000, 4.00000000000000000000, 4.00000000000000000000, 4.00000000000000000000, 4.00000000000000000000, 4.00000000000000000000, 4.00000000000000000000, 4.00000000000000000000, 1674.00000000000000000000, 1679.00000000000000000000, 0.00000000000000000000
127.00000000000000000000, 0.00000000000000000000, 4354.35886788102020000000, 4570.25629849907550000000, 4439.99989142784940000000, 5027.17936424892740000000, 4294.87168984849180000000, 4308.20502285578280000000, 4285.12810034316410000000, 4451.79476293429890000000, 4493.84604395729370000000, 4824.61526663816220000000, 4322.05117636335400000000, 4086.66656673464240000000, 4308.71784335606300000000, 4450.76912193373850000000, 400.00000000000000000000, 4.00000000000000000000, 4.00000000000000000000, 4.00000000000000000000, 4.00000000000000000000, 4.00000000000000000000, 3.00000000000000000000, 4.00000000000000000000, 4.00000000000000000000, 4.00000000000000000000, 4.00000000000000000000, 4.00000000000000000000, 4.00000000000000000000, 4.00000000000000000000, 4.00000000000000000000, 4.00000000000000000000, 4.00000000000000000000, 1674.00000000000000000000, 1679.00000000000000000000, 0.00000000000000000000
128.00000000000000000000, 0.00000000000000000000, 4347.17938087709440000000, 4568.20501649795370000000, 4430.76912242280200000000, 5023.58962074696410000000, 4292.82040784737000000000, 4311.79476635774520000000, 4278.46143383951860000000, 4441.02553242841080000000, 4479.99989044972240000000, 4812.82039513171280000000, 4316.41015086026890000000, 4084.10246423324040000000, 4299.48707435101550000000, 4442.56399392925140000000, 412.00000000000000000000, 4.00000000000000000000, 4.00000000000000000000, 4.00000000000000000000, 4.00000000000000000000, 4.00000000000000000000, 3.00000000000000000000, 4.00000000000000000000, 4.00000000000000000000, 4.00000000000000000000, 4.00000000000000000000, 4.00000000000000000000, 4.00000000000000000000, 4.00000000000000000000, 4.00000000000000000000, 4.00000000000000000000, 4.00000000000000000000, 1672.00000000000000000000, 1679.00000000000000000000, 0.00000000000000000000
0.00000000000000000000, 0.00000000000000000000, 4344.61527837569250000000, 4560.51270899374780000000, 4428.20501992140000000000, 5022.05115924612260000000, 4294.87168984849180000000, 4310.25630485690450000000, 4267.17938283334930000000, 4429.74348142224150000000, 4469.74348044411360000000, 4809.74347213003060000000, 4317.43579186083020000000, 4085.12810523380130000000, 4300.51271535157590000000, 4445.64091693093450000000, 400.00000000000000000000, 4.00000000000000000000, 4.00000000000000000000, 4.00000000000000000000, 4.00000000000000000000, 4.00000000000000000000, 3.00000000000000000000, 4.00000000000000000000, 4.00000000000000000000, 4.00000000000000000000, 4.00000000000000000000, 4.00000000000000000000, 4.00000000000000000000, 4.00000000000000000000, 4.00000000000000000000, 4.00000000000000000000, 4.00000000000000000000, 1672.00000000000000000000, 1678.00000000000000000000, 0.00000000000000000000
1.00000000000000000000, 0.00000000000000000000, 4338.97425287260740000000, 4544.61527348505480000000, 4428.71784042168020000000, 5012.30756974079490000000, 4291.79476684680960000000, 4304.10245885353920000000, 4261.02553682998400000000, 4419.48707141663270000000, 4456.92296793710370000000, 4801.02552362526330000000, 4309.74348435662340000000, 4078.46143873015580000000, 4293.33322834765020000000, 4441.02553242841080000000, 443.00000000000000000000, 4.00000000000000000000, 4.00000000000000000000, 4.00000000000000000000, 4.00000000000000000000, 4.00000000000000000000, 3.00000000000000000000, 4.00000000000000000000, 4.00000000000000000000, 4.00000000000000000000, 4.00000000000000000000, 4.00000000000000000000, 4.00000000000000000000, 4.00000000000000000000, 4.00000000000000000000, 4.00000000000000000000, 4.00000000000000000000, 1670.00000000000000000000, 1680.00000000000000000000, 0.00000000000000000000
2.00000000000000000000, 0.00000000000000000000, 4335.38450937064500000000, 4534.87168397972710000000, 4426.15373792027820000000, 5004.61526223658890000000, 4282.56399784176210000000, 4304.10245885353920000000, 4261.02553682998400000000, 4409.23066141102480000000, 4438.46142992700880000000, 4775.89731911152280000000, 4293.33322834765020000000, 4068.20502872454740000000, 4270.25630583503150000000, 4427.69219942111980000000, 409.00000000000000000000, 4.00000000000000000000, 4.00000000000000000000, 4.00000000000000000000, 4.00000000000000000000, 4.00000000000000000000, 3.00000000000000000000, 4.00000000000000000000, 4.00000000000000000000, 4.00000000000000000000, 4.00000000000000000000, 4.00000000000000000000, 4.00000000000000000000, 4.00000000000000000000, 4.00000000000000000000, 4.00000000000000000000, 4.00000000000000000000, 1671.00000000000000000000, 1680.00000000000000000000, 0.00000000000000000000
3.00000000000000000000, 0.00000000000000000000, 4333.33322736952320000000, 4536.92296598084890000000, 4424.10245591915650000000, 5007.69218523827110000000, 4279.48707484007900000000, 4310.25630485690450000000, 4263.58963933138600000000, 4415.38450741439010000000, 4436.41014792588700000000, 4764.61526810535360000000, 4291.79476684680960000000, 4067.17938772398660000000, 4265.12810083222760000000, 4426.15373792027820000000, 452.00000000000000000000, 4.00000000000000000000, 4.00000000000000000000, 4.00000000000000000000, 4.00000000000000000000, 4.00000000000000000000, 3.00000000000000000000, 4.00000000000000000000, 4.00000000000000000000, 4.00000000000000000000, 4.00000000000000000000, 4.00000000000000000000, 4.00000000000000000000, 4.00000000000000000000, 4.00000000000000000000, 4.00000000000000000000, 4.00000000000000000000, 1669.00000000000000000000, 1683.00000000000000000000, 0.00000000000000000000
4.00000000000000000000, 0.00000000000000000000, 4328.71784286699950000000, 4538.46142748168950000000, 4421.53835341775450000000, 5005.12808273686910000000, 4279.99989534035920000000, 4310.25630485690450000000, 4272.82040833643350000000, 4428.20501992140000000000, 4448.20501943233650000000, 4773.84603711040110000000, 4296.41015134933330000000, 4070.25631072566920000000, 4271.79476733587310000000, 4429.74348142224150000000, 467.00000000000000000000, 4.00000000000000000000, 4.00000000000000000000, 4.00000000000000000000, 4.00000000000000000000, 4.00000000000000000000, 3.00000000000000000000, 4.00000000000000000000, 4.00000000000000000000, 4.00000000000000000000, 4.00000000000000000000, 4.00000000000000000000, 4.00000000000000000000, 4.00000000000000000000, 4.00000000000000000000, 4.00000000000000000000, 4.00000000000000000000, 1670.00000000000000000000, 1683.00000000000000000000, 0.00000000000000000000
5.00000000000000000000, 0.00000000000000000000, 4331.28194536840150000000, 4535.89732498028750000000, 4419.99989191691380000000, 4999.99987773406520000000, 4278.97425433979880000000, 4309.23066385634320000000, 4275.38451083783550000000, 4428.20501992140000000000, 4455.38450643626220000000, 4786.15372911713080000000, 4296.92297184961350000000, 4068.71784922482770000000, 4268.20502383390980000000, 4428.71784042168020000000, 318.00000000000000000000, 4.00000000000000000000, 4.00000000000000000000, 4.00000000000000000000, 4.00000000000000000000, 4.00000000000000000000, 3.00000000000000000000, 4.00000000000000000000, 4.00000000000000000000, 4.00000000000000000000, 4.00000000000000000000, 4.00000000000000000000, 4.00000000000000000000, 4.00000000000000000000, 4.00000000000000000000, 4.00000000000000000000, 4.00000000000000000000, 1670.00000000000000000000, 1681.00000000000000000000, 0.00000000000000000000
