title:                                                                                , recorded:16.08.19 14.43.37, sampling:128, subject:                                                                                , labels:COUNTER INTERPOLATED AF3 F7 F3 FC5 T7 P7 O1 O2 P8 T8 FC6 F4 F8 AF4 RAW_CQ CQ_AF3 CQ_F7 CQ_F3 CQ_FC5 CQ_T7 CQ_P7 CQ_O1 CQ_O2 CQ_P8 CQ_T8 CQ_FC6 CQ_F4 CQ_F8 CQ_AF4 CQ_CMS CQ_DRL GYROX GYROY MARKER, chan:36, units:emotiv
128.00000000000000000000, 0.00000000000000000000, 4333.33322736952320000000, 5491.28191700270420000000, 4387.17937989896650000000, 5041.53833825677880000000, 5276.92294788549040000000, 4277.94861333923840000000, 4021.53836319902940000000, 4341.53835537400940000000, 4394.87168740317340000000, 4567.69219599767350000000, 4249.74348582381480000000, 4021.02554269874920000000, 5396.41012445082740000000, 4430.25630192252170000000, 416.00000000000000000000, 4.00000000000000000000, 4.00000000000000000000, 4.00000000000000000000, 4.00000000000000000000, 4.00000000000000000000, 3.00000000000000000000, 4.00000000000000000000, 4.00000000000000000000, 4.00000000000000000000, 4.00000000000000000000, 4.00000000000000000000, 4.00000000000000000000, 4.00000000000000000000, 4.00000000000000000000, 4.00000000000000000000, 4.00000000000000000000, 1675.00000000000000000000, 1683.00000000000000000000, 0.00000000000000000000
0.00000000000000000000, 0.00000000000000000000, 4329.74348386755990000000, 5501.53832700831300000000, 4381.53835439588240000000, 5026.15372324836610000000, 5262.05115337735790000000, 4277.43579283895720000000, 4025.12810670099220000000, 4329.74348386755990000000, 4388.20502089952790000000, 4563.07681149514970000000, 4244.10246032073060000000, 4018.46144019734720000000, 5383.58961194381660000000, 4419.48707141663270000000, 410.00000000000000000000, 4.00000000000000000000, 4.00000000000000000000, 4.00000000000000000000, 4.00000000000000000000, 4.00000000000000000000, 3.00000000000000000000, 4.00000000000000000000, 4.00000000000000000000, 4.00000000000000000000, 4.00000000000000000000, 4.00000000000000000000, 4.00000000000000000000, 4.00000000000000000000, 4.00000000000000000000, 4.00000000000000000000, 4.00000000000000000000, 1674.00000000000000000000, 1686.00000000000000000000, 0.00000000000000000000
1.00000000000000000000, 0.00000000000000000000, 4319.99989436223220000000, 5505.64089101055650000000, 4372.82040589111510000000, 5015.89731324275820000000, 5246.15371786866490000000, 4278.46143383951860000000, 4032.82041420519860000000, 4331.79476586868170000000, 4391.79476440149030000000, 4567.17937549739330000000, 4243.58963982045040000000, 4017.43579919678630000000, 5379.48704794157310000000, 4412.30758441270700000000, 446.00000000000000000000, 4.00000000000000000000, 4.00000000000000000000, 4.00000000000000000000, 4.00000000000000000000, 4.00000000000000000000, 3.00000000000000000000, 4.00000000000000000000, 4.00000000000000000000, 4.00000000000000000000, 4.00000000000000000000, 4.00000000000000000000, 4.00000000000000000000, 4.00000000000000000000, 4.00000000000000000000, 4.00000000000000000000, 4.00000000000000000000, 1673.00000000000000000000, 1685.00000000000000000000, 0.00000000000000000000
2.00000000000000000000, 0.00000000000000000000, 4323.07681736391440000000, 5517.94858301728620000000, 4372.82040589111510000000, 5025.64090274808590000000, 5245.12807686810450000000, 4279.99989534035920000000, 4040.51272170940500000000, 4345.12809887597270000000, 4405.12809740878130000000, 4575.38450350187940000000, 4248.20502432297420000000, 4019.99990169818830000000, 5386.15371444521860000000, 4422.05117391803470000000, 416.00000000000000000000, 4.00000000000000000000, 4.00000000000000000000, 4.00000000000000000000, 4.00000000000000000000, 4.00000000000000000000, 3.00000000000000000000, 4.00000000000000000000, 4.00000000000000000000, 4.00000000000000000000, 4.00000000000000000000, 4.00000000000000000000, 4.00000000000000000000, 4.00000000000000000000, 4.00000000000000000000, 4.00000000000000000000, 4.00000000000000000000, 1672.00000000000000000000, 1685.00000000000000000000, 0.00000000000000000000
3.00000000000000000000, 0.00000000000000000000, 4325.64091986531640000000, 5524.10242902065150000000, 4372.82040589111510000000, 5027.69218474920760000000, 5239.99987186530050000000, 4283.58963884232250000000, 4049.23067021417180000000, 4357.94861138298260000000, 4417.94860991579210000000, 4579.99988800440310000000, 4246.66656282213260000000, 4020.51272219846850000000, 5381.02550944241470000000, 4419.99989191691380000000, 423.00000000000000000000, 4.00000000000000000000, 4.00000000000000000000, 4.00000000000000000000, 4.00000000000000000000, 4.00000000000000000000, 3.00000000000000000000, 4.00000000000000000000, 4.00000000000000000000, 4.00000000000000000000, 4.00000000000000000000, 4.00000000000000000000, 4.00000000000000000000, 4.00000000000000000000, 4.00000000000000000000, 4.00000000000000000000, 4.00000000000000000000, 1672.00000000000000000000, 1684.00000000000000000000, 0.00000000000000000000
4.00000000000000000000, 0.00000000000000000000, 4320.51271486251240000000, 5516.92294201672480000000, 4371.28194439027360000000, 5018.97423624444040000000, 5227.69217985856990000000, 4292.30758734708980000000, 4059.48708021978020000000, 4374.35886739195670000000, 4429.23066092196130000000, 4590.76911851029220000000, 4244.10246032073060000000, 4018.97426069762740000000, 5374.87166343904940000000, 4412.82040491298720000000, 443.00000000000000000000, 4.00000000000000000000, 4.00000000000000000000, 4.00000000000000000000, 4.00000000000000000000, 4.00000000000000000000, 3.00000000000000000000, 4.00000000000000000000, 4.00000000000000000000, 4.00000000000000000000, 4.00000000000000000000, 4.00000000000000000000, 4.00000000000000000000, 4.00000000000000000000, 4.00000000000000000000, 4.00000000000000000000, 4.00000000000000000000, 1671.00000000000000000000, 1683.00000000000000000000, 0.00000000000000000000
5.00000000000000000000, 0.00000000000000000000, 4328.71784286699950000000, 5526.15371102177230000000, 4377.94861089391910000000, 5025.12808224780570000000, 5226.66653885800950000000, 4292.30758734708980000000, 4055.38451621753710000000, 4383.07681589672300000000, 4433.84604542448510000000, 4603.07681051702180000000, 4248.20502432297420000000, 4021.53836319902940000000, 5382.56397094325620000000, 4421.02553291747430000000, 345.00000000000000000000, 4.00000000000000000000, 4.00000000000000000000, 4.00000000000000000000, 4.00000000000000000000, 4.00000000000000000000, 3.00000000000000000000, 4.00000000000000000000, 4.00000000000000000000, 4.00000000000000000000, 4.00000000000000000000, 4.00000000000000000000, 4.00000000000000000000, 4.00000000000000000000, 4.00000000000000000000, 4.00000000000000000000, 4.00000000000000000000, 1672.00000000000000000000, 1683.00000000000000000000, 0.00000000000000000000
6.00000000000000000000, 0.00000000000000000000, 4337.94861187204700000000, 5547.17935153327020000000, 4384.61527739756460000000, 5034.87167175313330000000, 5229.74346185969170000000, 4284.10245934260270000000, 4041.02554220968520000000, 4376.92296989335860000000, 4432.30758392364350000000, 4605.12809251814360000000, 4254.35887032633850000000, 4030.76913220407690000000, 5389.23063744690170000000, 4430.25630192252170000000, 456.00000000000000000000, 4.00000000000000000000, 4.00000000000000000000, 4.00000000000000000000, 4.00000000000000000000, 4.00000000000000000000, 3.00000000000000000000, 4.00000000000000000000, 4.00000000000000000000, 4.00000000000000000000, 4.00000000000000000000, 4.00000000000000000000, 4.00000000000000000000, 4.00000000000000000000, 4.00000000000000000000, 4.00000000000000000000, 4.00000000000000000000, 1672.00000000000000000000, 1682.00000000000000000000, 0.00000000000000000000
7.00000000000000000000, 0.00000000000000000000, 4333.33322736952320000000, 5549.23063353439190000000, 4382.56399539644280000000, 5031.28192825117000000000, 5221.02551335492440000000, 4283.58963884232250000000, 4033.84605520575950000000, 4368.20502138859140000000, 4429.23066092196130000000, 4601.02552851590100000000, 4262.56399833082560000000, 4039.99990120912430000000, 5395.38448345026610000000, 4435.89732742560680000000, 426.00000000000000000000, 4.00000000000000000000, 4.00000000000000000000, 4.00000000000000000000, 4.00000000000000000000, 4.00000000000000000000, 3.00000000000000000000, 4.00000000000000000000, 4.00000000000000000000, 4.00000000000000000000, 4.00000000000000000000, 4.00000000000000000000, 4.00000000000000000000, 4.00000000000000000000, 4.00000000000000000000, 4.00000000000000000000, 4.00000000000000000000, 1673.00000000000000000000, 1682.00000000000000000000, 0.00000000000000000000
8.00000000000000000000, 0.00000000000000000000, 4336.92297087148560000000, 5550.76909503523260000000, 4385.12809789784480000000, 5035.89731275369380000000, 5210.76910334931650000000, 4289.74348484568780000000, 4034.87169620632040000000, 4363.07681638578740000000, 4422.56399441831580000000, 4601.53834901618120000000, 4274.87169033755530000000, 4044.10246521136790000000, 5407.17935495671650000000, 4447.17937843177510000000, 371.00000000000000000000, 4.00000000000000000000, 4.00000000000000000000, 4.00000000000000000000, 4.00000000000000000000, 4.00000000000000000000, 3.00000000000000000000, 4.00000000000000000000, 4.00000000000000000000, 4.00000000000000000000, 4.00000000000000000000, 4.00000000000000000000, 4.00000000000000000000, 4.00000000000000000000, 4.00000000000000000000, 4.00000000000000000000, 4.00000000000000000000, 1674.00000000000000000000, 1680.00000000000000000000, 0.00000000000000000000
9.00000000000000000000, 0.00000000000000000000, 4344.10245787541130000000, 5556.92294103859790000000, 4389.74348240036850000000, 5046.66654325958280000000, 5203.58961634539080000000, 4292.30758734708980000000, 4034.87169620632040000000, 4353.84604738073990000000, 4413.33322541326830000000, 4606.15373351870490000000, 4275.38451083783550000000, 4044.61528571164810000000, 5405.12807295559470000000, 4446.66655793149490000000, 414.00000000000000000000, 4.00000000000000000000, 4.00000000000000000000, 4.00000000000000000000, 4.00000000000000000000, 4.00000000000000000000, 3.00000000000000000000, 4.00000000000000000000, 4.00000000000000000000, 4.00000000000000000000, 4.00000000000000000000, 4.00000000000000000000, 4.00000000000000000000, 4.00000000000000000000, 4.00000000000000000000, 4.00000000000000000000, 4.00000000000000000000, 1675.00000000000000000000, 1681.00000000000000000000, 0.00000000000000000000
10.00000000000000000000, 0.00000000000000000000, 4339.48707337288760000000, 5551.28191553551280000000, 4385.12809789784480000000, 5039.99987675593730000000, 5196.41012934146510000000, 4293.33322834765020000000, 4040.51272170940500000000, 4347.17938087709440000000, 4402.56399490737930000000, 4601.53834901618120000000, 4265.12810083222760000000, 4043.58964471108720000000, 5394.35884244970570000000, 4438.97425042728900000000, 417.00000000000000000000, 4.00000000000000000000, 4.00000000000000000000, 4.00000000000000000000, 4.00000000000000000000, 4.00000000000000000000, 3.00000000000000000000, 4.00000000000000000000, 4.00000000000000000000, 4.00000000000000000000, 4.00000000000000000000, 4.00000000000000000000, 4.00000000000000000000, 4.00000000000000000000, 4.00000000000000000000, 4.00000000000000000000, 4.00000000000000000000, 1675.00000000000000000000, 1680.00000000000000000000, 0.00000000000000000000
11.00000000000000000000, 0.00000000000000000000, 4334.35886837008370000000, 5539.48704402906330000000, 4381.53835439588240000000, 5029.74346675032940000000, 5189.74346283781960000000, 4294.35886934821160000000, 4055.38451621753710000000, 4347.69220137737470000000, 4395.38450790345360000000, 4589.74347750973170000000, 4263.58963933138600000000, 4046.66656771276980000000, 5395.38448345026610000000, 4444.10245543009300000000, 399.00000000000000000000, 4.00000000000000000000, 4.00000000000000000000, 4.00000000000000000000, 4.00000000000000000000, 4.00000000000000000000, 3.00000000000000000000, 4.00000000000000000000, 4.00000000000000000000, 4.00000000000000000000, 4.00000000000000000000, 4.00000000000000000000, 4.00000000000000000000, 4.00000000000000000000, 4.00000000000000000000, 4.00000000000000000000, 4.00000000000000000000, 1676.00000000000000000000, 1681.00000000000000000000, 0.00000000000000000000
12.00000000000000000000, 0.00000000000000000000, 4330.25630436784010000000, 5532.82037752541780000000, 4382.05117489616260000000, 5031.79474875145120000000, 5179.99987333249100000000, 4294.87168984849180000000, 4064.10246472230390000000, 4352.30758587989840000000, 4399.99989240597730000000, 4587.17937500832980000000, 4266.66656233306910000000, 4047.69220871333070000000, 5396.41012445082740000000, 4443.07681442953250000000, 416.00000000000000000000, 4.00000000000000000000, 4.00000000000000000000, 4.00000000000000000000, 4.00000000000000000000, 4.00000000000000000000, 3.00000000000000000000, 4.00000000000000000000, 4.00000000000000000000, 4.00000000000000000000, 4.00000000000000000000, 4.00000000000000000000, 4.00000000000000000000, 4.00000000000000000000, 4.00000000000000000000, 4.00000000000000000000, 4.00000000000000000000, 1677.00000000000000000000, 1679.00000000000000000000, 0.00000000000000000000
13.00000000000000000000, 0.00000000000000000000, 4327.69220186643820000000, 5531.79473652485740000000, 4378.97425189448040000000, 5031.79474875145120000000, 5164.61525832407920000000, 4294.87168984849180000000, 4064.61528522258460000000, 4358.46143188326370000000, 4411.79476391242680000000, 4594.87168251253570000000, 4265.12810083222760000000, 4039.48708070884410000000, 5388.20499644634040000000, 4429.23066092196130000000, 401.00000000000000000000, 4.00000000000000000000, 4.00000000000000000000, 4.00000000000000000000, 4.00000000000000000000, 4.00000000000000000000, 3.00000000000000000000, 4.00000000000000000000, 4.00000000000000000000, 4.00000000000000000000, 4.00000000000000000000, 4.00000000000000000000, 4.00000000000000000000, 4.00000000000000000000, 4.00000000000000000000, 4.00000000000000000000, 4.00000000000000000000, 1676.00000000000000000000, 1680.00000000000000000000, 0.00000000000000000000
14.00000000000000000000, 0.00000000000000000000, 4331.28194536840150000000, 5532.82037752541780000000, 4381.53835439588240000000, 5035.38449225341360000000, 5149.23064331566640000000, 4296.41015134933330000000, 4058.97425971950000000000, 4367.17938038803090000000, 4424.61527641943760000000, 4603.58963101730300000000, 4263.58963933138600000000, 4035.89733720688130000000, 5389.74345794718190000000, 4431.79476342336330000000, 417.00000000000000000000, 4.00000000000000000000, 4.00000000000000000000, 4.00000000000000000000, 4.00000000000000000000, 4.00000000000000000000, 3.00000000000000000000, 4.00000000000000000000, 4.00000000000000000000, 4.00000000000000000000, 4.00000000000000000000, 4.00000000000000000000, 4.00000000000000000000, 4.00000000000000000000, 4.00000000000000000000, 4.00000000000000000000, 4.00000000000000000000, 1679.00000000000000000000, 1679.00000000000000000000, 0.00000000000000000000
15.00000000000000000000, 0.00000000000000000000, 4331.79476586868170000000, 5523.58960852037030000000, 4383.58963639700410000000, 5038.46141525509670000000, 5148.20500231510500000000, 4295.89733084905220000000, 4050.76913171501340000000, 4377.94861089391910000000, 4438.46142992700880000000, 4611.79475902178910000000, 4267.17938283334930000000, 4035.89733720688130000000, 5391.28191944802350000000, 4441.02553242841080000000, 399.00000000000000000000, 4.00000000000000000000, 4.00000000000000000000, 4.00000000000000000000, 4.00000000000000000000, 4.00000000000000000000, 3.00000000000000000000, 4.00000000000000000000, 4.00000000000000000000, 4.00000000000000000000, 4.00000000000000000000, 4.00000000000000000000, 4.00000000000000000000, 4.00000000000000000000, 4.00000000000000000000, 4.00000000000000000000, 4.00000000000000000000, 1677.00000000000000000000, 1680.00000000000000000000, 0.00000000000000000000
16.00000000000000000000, 0.00000000000000000000, 4322.05117636335400000000, 5507.69217301167740000000, 4371.79476489055470000000, 5027.17936424892740000000, 5154.35884831847030000000, 4296.92297184961350000000, 4053.84605471669560000000, 4385.64091839812590000000, 4446.15373743121470000000, 4615.38450252375240000000, 4264.10245983166710000000, 4024.61528620071200000000, 5375.38448393933050000000, 4430.76912242280200000000, 0.00000000000000000000, 4.00000000000000000000, 4.00000000000000000000, 4.00000000000000000000, 4.00000000000000000000, 4.00000000000000000000, 3.00000000000000000000, 4.00000000000000000000, 4.00000000000000000000, 4.00000000000000000000, 4.00000000000000000000, 4.00000000000000000000, 4.00000000000000000000, 4.00000000000000000000, 4.00000000000000000000, 4.00000000000000000000, 4.00000000000000000000, 1679.00000000000000000000, 1681.00000000000000000000, 0.00000000000000000000
17.00000000000000000000, 0.00000000000000000000, 4318.97425336167090000000, 5502.56396800887340000000, 4363.58963688606760000000, 5021.53833874584230000000, 5144.10243831286240000000, 4305.64092035438080000000, 4058.46143921921930000000, 4385.64091839812590000000, 4444.61527593037320000000, 4614.35886152319110000000, 4255.89733182718010000000, 4015.89733769594480000000, 5368.20499693540480000000, 4421.02553291747430000000, 0.00000000000000000000, 4.00000000000000000000, 4.00000000000000000000, 4.00000000000000000000, 4.00000000000000000000, 4.00000000000000000000, 3.00000000000000000000, 4.00000000000000000000, 4.00000000000000000000, 4.00000000000000000000, 4.00000000000000000000, 4.00000000000000000000, 4.00000000000000000000, 4.00000000000000000000, 4.00000000000000000000, 4.00000000000000000000, 4.00000000000000000000, 1678.00000000000000000000, 1680.00000000000000000000, 0.00000000000000000000
18.00000000000000000000, 0.00000000000000000000, 4320.51271486251240000000, 5504.61525000999520000000, 4367.17938038803090000000, 5027.17936424892740000000, 5133.84602830725360000000, 4305.64092035438080000000, 4047.69220871333070000000, 4377.94861089391910000000, 4439.99989142784940000000, 4616.41014352431280000000, 4254.87169082661880000000, 4017.94861969706650000000, 5373.84602243848890000000, 4425.64091741999800000000, 0.00000000000000000000, 4.00000000000000000000, 4.00000000000000000000, 4.00000000000000000000, 4.00000000000000000000, 4.00000000000000000000, 3.00000000000000000000, 4.00000000000000000000, 4.00000000000000000000, 4.00000000000000000000, 4.00000000000000000000, 4.00000000000000000000, 4.00000000000000000000, 4.00000000000000000000, 4.00000000000000000000, 4.00000000000000000000, 4.00000000000000000000, 1678.00000000000000000000, 1682.00000000000000000000, 0.00000000000000000000
19.00000000000000000000, 0.00000000000000000000, 4323.58963786419460000000, 5501.02550650803190000000, 4370.76912388999340000000, 5028.20500524948780000000, 5136.41013080865560000000, 4297.94861285017400000000, 4038.46143970828330000000, 4368.20502138859140000000, 4433.33322492420390000000, 4614.35886152319110000000, 4259.48707532914250000000, 4018.97426069762740000000, 5375.38448393933050000000, 4426.66655842055840000000, 0.00000000000000000000, 4.00000000000000000000, 4.00000000000000000000, 4.00000000000000000000, 4.00000000000000000000, 4.00000000000000000000, 3.00000000000000000000, 4.00000000000000000000, 4.00000000000000000000, 4.00000000000000000000, 4.00000000000000000000, 4.00000000000000000000, 4.00000000000000000000, 4.00000000000000000000, 4.00000000000000000000, 4.00000000000000000000, 4.00000000000000000000, 1676.00000000000000000000, 1683.00000000000000000000, 0.00000000000000000000
20.00000000000000000000, 0.00000000000000000000, 4326.15374036559750000000, 5496.92294250578930000000, 4370.25630338971310000000, 5029.74346675032940000000, 5124.10243880192590000000, 4299.99989485129570000000, 4051.79477271557430000000, 4366.15373938746960000000, 4425.12809691971780000000, 4609.23065652038710000000, 4257.94861382830190000000, 4018.97426069762740000000, 5375.89730443961070000000, 4428.20501992140000000000, 0.00000000000000000000, 4.00000000000000000000, 4.00000000000000000000, 4.00000000000000000000, 4.00000000000000000000, 4.00000000000000000000, 3.00000000000000000000, 4.00000000000000000000, 4.00000000000000000000, 4.00000000000000000000, 4.00000000000000000000, 4.00000000000000000000, 4.00000000000000000000, 4.00000000000000000000, 4.00000000000000000000, 4.00000000000000000000, 4.00000000000000000000, 1675.00000000000000000000, 1686.00000000000000000000, 0.00000000000000000000
21.00000000000000000000, 0.00000000000000000000, 4318.46143286139070000000, 5489.23063500158240000000, 4367.69220088831120000000, 5032.30756925173140000000, 5099.48705478846570000000, 4301.02553585185710000000, 4063.58964422202370000000, 4364.61527788662810000000, 4414.87168691410900000000, 4602.05116951646140000000, 4250.25630632409500000000, 4021.53836319902940000000, 5370.25627893652560000000, 4426.15373792027820000000, 0.00000000000000000000, 4.00000000000000000000, 4.00000000000000000000, 4.00000000000000000000, 4.00000000000000000000, 4.00000000000000000000, 3.00000000000000000000, 4.00000000000000000000, 4.00000000000000000000, 4.00000000000000000000, 4.00000000000000000000, 4.00000000000000000000, 4.00000000000000000000, 4.00000000000000000000, 4.00000000000000000000, 4.00000000000000000000, 4.00000000000000000000, 1674.00000000000000000000, 1687.00000000000000000000, 0.00000000000000000000
22.00000000000000000000, 0.00000000000000000000, 4308.20502285578280000000, 5476.92294299485270000000, 4363.58963688606760000000, 5026.66654374864630000000, 5092.82038828482020000000, 4294.35886934821160000000, 4059.99990072006090000000, 4359.48707288382410000000, 4406.66655890962280000000, 4591.79475951085350000000, 4246.15374232185240000000, 4019.48708119790760000000, 5356.41012542895440000000, 4412.82040491298720000000, 0.00000000000000000000, 4.00000000000000000000, 4.00000000000000000000, 4.00000000000000000000, 4.00000000000000000000, 4.00000000000000000000, 3.00000000000000000000, 4.00000000000000000000, 4.00000000000000000000, 4.00000000000000000000, 4.00000000000000000000, 4.00000000000000000000, 4.00000000000000000000, 4.00000000000000000000, 4.00000000000000000000, 4.00000000000000000000, 4.00000000000000000000, 1672.00000000000000000000, 1691.00000000000000000000, 0.00000000000000000000
23.00000000000000000000, 0.00000000000000000000, 4310.25630485690450000000, 5468.20499449008550000000, 4364.61527788662810000000, 5021.02551824556210000000, 5090.76910628369840000000, 4294.87168984849180000000, 4060.51272122034110000000, 4364.61527788662810000000, 4405.12809740878130000000, 4591.28193901057240000000, 4246.15374232185240000000, 4021.02554269874920000000, 5352.30756142671180000000, 4413.33322541326830000000, 0.00000000000000000000, 4.00000000000000000000, 4.00000000000000000000, 4.00000000000000000000, 4.00000000000000000000, 4.00000000000000000000, 3.00000000000000000000, 4.00000000000000000000, 4.00000000000000000000, 4.00000000000000000000, 4.00000000000000000000, 4.00000000000000000000, 4.00000000000000000000, 4.00000000000000000000, 4.00000000000000000000, 4.00000000000000000000, 4.00000000000000000000, 1670.00000000000000000000, 1692.00000000000000000000, 0.00000000000000000000
24.00000000000000000000, 0.00000000000000000000, 4321.02553536279270000000, 5465.64089198868350000000, 4373.33322639139530000000, 5024.61526174752540000000, 5076.92295277612720000000, 4295.89733084905220000000, 4064.10246472230390000000, 4374.87168789223690000000, 4412.30758441270700000000, 4602.56399001674160000000, 4250.76912682437610000000, 4029.23067070323580000000, 5353.33320242727220000000, 4428.71784042168020000000, 0.00000000000000000000, 4.00000000000000000000, 4.00000000000000000000, 4.00000000000000000000, 4.00000000000000000000, 4.00000000000000000000, 3.00000000000000000000, 4.00000000000000000000, 4.00000000000000000000, 4.00000000000000000000, 4.00000000000000000000, 4.00000000000000000000, 4.00000000000000000000, 4.00000000000000000000, 4.00000000000000000000, 4.00000000000000000000, 4.00000000000000000000, 1671.00000000000000000000, 1693.00000000000000000000, 0.00000000000000000000
25.00000000000000000000, 0.00000000000000000000, 4326.66656086587770000000, 5455.38448198307560000000, 4379.99989289504080000000, 5030.25628725060960000000, 5069.74346577220150000000, 4292.30758734708980000000, 4058.97425971950000000000, 4379.48707239476060000000, 4429.74348142224150000000, 4615.89732302403260000000, 4257.43579332802160000000, 4032.30759370491840000000, 5347.17935642390690000000, 4432.30758392364350000000, 0.00000000000000000000, 4.00000000000000000000, 4.00000000000000000000, 4.00000000000000000000, 4.00000000000000000000, 4.00000000000000000000, 3.00000000000000000000, 4.00000000000000000000, 4.00000000000000000000, 4.00000000000000000000, 4.00000000000000000000, 4.00000000000000000000, 4.00000000000000000000, 4.00000000000000000000, 4.00000000000000000000, 4.00000000000000000000, 4.00000000000000000000, 1670.00000000000000000000, 1690.00000000000000000000, 0.00000000000000000000
26.00000000000000000000, 0.00000000000000000000, 4327.69220186643820000000, 5443.07678997634500000000, 4382.56399539644280000000, 5034.87167175313330000000, 5070.25628627248170000000, 4293.33322834765020000000, 4050.76913171501340000000, 4385.12809789784480000000, 4446.66655793149490000000, 4629.74347653160380000000, 4264.61528033194740000000, 4036.41015770716150000000, 5344.10243342222470000000, 4430.25630192252170000000, 0.00000000000000000000, 4.00000000000000000000, 4.00000000000000000000, 4.00000000000000000000, 4.00000000000000000000, 4.00000000000000000000, 3.00000000000000000000, 4.00000000000000000000, 4.00000000000000000000, 4.00000000000000000000, 4.00000000000000000000, 4.00000000000000000000, 4.00000000000000000000, 4.00000000000000000000, 4.00000000000000000000, 4.00000000000000000000, 4.00000000000000000000, 1670.00000000000000000000, 1689.00000000000000000000, 0.00000000000000000000
27.00000000000000000000, 0.00000000000000000000, 4324.61527886475600000000, 5440.51268747494300000000, 4382.05117489616260000000, 5034.87167175313330000000, 5064.61526076939750000000, 4296.92297184961350000000, 4051.28195221529360000000, 4391.79476440149030000000, 4449.23066043289690000000, 4637.43578403580980000000, 4264.61528033194740000000, 4041.53836270996590000000, 5341.53833092082280000000, 4432.82040442392370000000, 0.00000000000000000000, 4.00000000000000000000, 4.00000000000000000000, 4.00000000000000000000, 4.00000000000000000000, 4.00000000000000000000, 3.00000000000000000000, 4.00000000000000000000, 4.00000000000000000000, 4.00000000000000000000, 4.00000000000000000000, 4.00000000000000000000, 4.00000000000000000000, 4.00000000000000000000, 4.00000000000000000000, 4.00000000000000000000, 4.00000000000000000000, 1670.00000000000000000000, 1686.00000000000000000000, 0.00000000000000000000
28.00000000000000000000, 0.00000000000000000000, 4323.58963786419460000000, 5435.89730297241930000000, 4379.99989289504080000000, 5030.76910775088980000000, 5058.46141476603220000000, 4301.53835635213730000000, 4053.84605471669560000000, 4389.74348240036850000000, 4444.10245543009300000000, 4634.87168153440780000000, 4255.89733182718010000000, 4038.46143970828330000000, 5328.71781841381200000000, 4429.74348142224150000000, 0.00000000000000000000, 4.00000000000000000000, 4.00000000000000000000, 4.00000000000000000000, 4.00000000000000000000, 4.00000000000000000000, 3.00000000000000000000, 4.00000000000000000000, 4.00000000000000000000, 4.00000000000000000000, 4.00000000000000000000, 4.00000000000000000000, 4.00000000000000000000, 4.00000000000000000000, 4.00000000000000000000, 4.00000000000000000000, 4.00000000000000000000, 1670.00000000000000000000, 1685.00000000000000000000, 0.00000000000000000000
29.00000000000000000000, 0.00000000000000000000, 4332.82040686924300000000, 5429.74345696905400000000, 4383.07681589672300000000, 5036.41013325397490000000, 5057.94859426575200000000, 4305.12809985409970000000, 4050.25631121473270000000, 4385.12809789784480000000, 4445.12809643065430000000, 4634.87168153440780000000, 4255.89733182718010000000, 4038.46143970828330000000, 5322.05115191016650000000, 4427.17937892083960000000, 0.00000000000000000000, 4.00000000000000000000, 4.00000000000000000000, 4.00000000000000000000, 4.00000000000000000000, 4.00000000000000000000, 3.00000000000000000000, 4.00000000000000000000, 4.00000000000000000000, 4.00000000000000000000, 4.00000000000000000000, 4.00000000000000000000, 4.00000000000000000000, 4.00000000000000000000, 4.00000000000000000000, 4.00000000000000000000, 4.00000000000000000000, 1669.00000000000000000000, 1683.00000000000000000000, 0.00000000000000000000
30.00000000000000000000, 0.00000000000000000000, 4338.97425287260740000000, 5428.71781596849360000000, 4386.15373889840610000000, 5042.56397925733930000000, 5055.89731226463030000000, 4303.58963835325900000000, 4049.23067021417180000000, 4385.12809789784480000000, 4440.51271192813060000000, 4632.82039953328600000000, 4259.99989582942360000000, 4047.69220871333070000000, 5321.53833140988630000000, 4430.76912242280200000000, 0.00000000000000000000, 4.00000000000000000000, 4.00000000000000000000, 4.00000000000000000000, 4.00000000000000000000, 4.00000000000000000000, 3.00000000000000000000, 4.00000000000000000000, 4.00000000000000000000, 4.00000000000000000000, 4.00000000000000000000, 4.00000000000000000000, 4.00000000000000000000, 4.00000000000000000000, 4.00000000000000000000, 4.00000000000000000000, 4.00000000000000000000, 1670.00000000000000000000, 1683.00000000000000000000, 0.00000000000000000000
31.00000000000000000000, 0.00000000000000000000, 4331.28194536840150000000, 5416.41012396176390000000, 4382.05117489616260000000, 5033.33321025229180000000, 5045.12808175874120000000, 4304.10245885353920000000, 4057.43579821865890000000, 4383.58963639700410000000, 4424.10245591915650000000, 4619.99988702627620000000, 4257.43579332802160000000, 4052.30759321585450000000, 5311.28192140427840000000, 4427.69219942111980000000, 0.00000000000000000000, 4.00000000000000000000, 4.00000000000000000000, 4.00000000000000000000, 4.00000000000000000000, 4.00000000000000000000, 3.00000000000000000000, 4.00000000000000000000, 4.00000000000000000000, 4.00000000000000000000, 4.00000000000000000000, 4.00000000000000000000, 4.00000000000000000000, 4.00000000000000000000, 4.00000000000000000000, 4.00000000000000000000, 4.00000000000000000000, 1671.00000000000000000000, 1681.00000000000000000000, 0.00000000000000000000
32.00000000000000000000, 0.00000000000000000000, 4323.58963786419460000000, 5400.51268845307100000000, 4378.97425189448040000000, 5024.61526174752540000000, 5034.87167175313330000000, 4303.07681785297880000000, 4069.74349022538850000000, 4376.92296989335860000000, 4410.76912291186640000000, 4612.30757952207020000000, 4257.43579332802160000000, 4049.74349071445250000000, 5305.12807540091310000000, 4424.61527641943760000000, 0.00000000000000000000, 4.00000000000000000000, 4.00000000000000000000, 4.00000000000000000000, 4.00000000000000000000, 4.00000000000000000000, 3.00000000000000000000, 4.00000000000000000000, 4.00000000000000000000, 4.00000000000000000000, 4.00000000000000000000, 4.00000000000000000000, 4.00000000000000000000, 4.00000000000000000000, 4.00000000000000000000, 4.00000000000000000000, 4.00000000000000000000, 1669.00000000000000000000, 1681.00000000000000000000, 0.00000000000000000000
33.00000000000000000000, 0.00000000000000000000, 4325.12809936503620000000, 5396.92294495110760000000, 4379.48707239476060000000, 5026.66654374864630000000, 5026.66654374864630000000, 4297.94861285017400000000, 4073.84605422763210000000, 4374.35886739195670000000, 4410.25630241158520000000, 4614.87168202347220000000, 4262.56399833082560000000, 4049.23067021417180000000, 5309.23063940315660000000, 4430.76912242280200000000, 0.00000000000000000000, 4.00000000000000000000, 4.00000000000000000000, 4.00000000000000000000, 4.00000000000000000000, 4.00000000000000000000, 3.00000000000000000000, 4.00000000000000000000, 4.00000000000000000000, 4.00000000000000000000, 4.00000000000000000000, 4.00000000000000000000, 4.00000000000000000000, 4.00000000000000000000, 4.00000000000000000000, 4.00000000000000000000, 4.00000000000000000000, 1671.00000000000000000000, 1680.00000000000000000000, 0.00000000000000000000
34.00000000000000000000, 0.00000000000000000000, 4325.12809936503620000000, 5389.23063744690170000000, 4376.41014939307840000000, 5025.12808224780570000000, 5016.92295424331860000000, 4296.41015134933330000000, 4075.38451572847320000000, 4379.48707239476060000000, 4419.48707141663270000000, 4618.97424602571480000000, 4261.02553682998400000000, 4047.17938821305050000000, 5306.66653690175460000000, 4432.30758392364350000000, 0.00000000000000000000, 4.00000000000000000000, 4.00000000000000000000, 4.00000000000000000000, 4.00000000000000000000, 4.00000000000000000000, 3.00000000000000000000, 4.00000000000000000000, 4.00000000000000000000, 4.00000000000000000000, 4.00000000000000000000, 4.00000000000000000000, 4.00000000000000000000, 4.00000000000000000000, 4.00000000000000000000, 4.00000000000000000000, 4.00000000000000000000, 1670.00000000000000000000, 1680.00000000000000000000, 0.00000000000000000000
35.00000000000000000000, 0.00000000000000000000, 4328.71784286699950000000, 5381.02550944241470000000, 4377.94861089391910000000, 5025.12808224780570000000, 5009.23064673911270000000, 4298.46143335045510000000, 4079.99990023099690000000, 4392.30758490177050000000, 4436.41014792588700000000, 4627.69219453048210000000, 4260.51271632970380000000, 4044.61528571164810000000, 5301.53833189894980000000, 4433.84604542448510000000, 0.00000000000000000000, 4.00000000000000000000, 4.00000000000000000000, 4.00000000000000000000, 4.00000000000000000000, 4.00000000000000000000, 3.00000000000000000000, 4.00000000000000000000, 4.00000000000000000000, 4.00000000000000000000, 4.00000000000000000000, 4.00000000000000000000, 4.00000000000000000000, 4.00000000000000000000, 4.00000000000000000000, 4.00000000000000000000, 4.00000000000000000000, 1672.00000000000000000000, 1681.00000000000000000000, 0.00000000000000000000
36.00000000000000000000, 0.00000000000000000000, 4334.87168887036390000000, 5384.10243244409680000000, 4384.10245689728440000000, 5030.76910775088980000000, 5007.69218523827110000000, 4296.41015134933330000000, 4075.89733622875380000000, 4401.02553340653780000000, 4454.87168593598200000000, 4643.07680953889480000000, 4266.66656233306910000000, 4045.12810621192880000000, 5305.64089590119330000000, 4439.48707092756920000000, 0.00000000000000000000, 4.00000000000000000000, 4.00000000000000000000, 4.00000000000000000000, 4.00000000000000000000, 4.00000000000000000000, 3.00000000000000000000, 4.00000000000000000000, 4.00000000000000000000, 4.00000000000000000000, 4.00000000000000000000, 4.00000000000000000000, 4.00000000000000000000, 4.00000000000000000000, 4.00000000000000000000, 4.00000000000000000000, 4.00000000000000000000, 1672.00000000000000000000, 1681.00000000000000000000, 0.00000000000000000000
37.00000000000000000000, 0.00000000000000000000, 4332.30758636896190000000, 5382.05115044297600000000, 4381.53835439588240000000, 5030.25628725060960000000, 5004.61526223658890000000, 4292.82040784737000000000, 4062.56400322146280000000, 4398.97425140541600000000, 4463.58963444074930000000, 4653.33321954450280000000, 4266.66656233306910000000, 4043.07682421080700000000, 5302.05115239923090000000, 4436.41014792588700000000, 0.00000000000000000000, 4.00000000000000000000, 4.00000000000000000000, 4.00000000000000000000, 4.00000000000000000000, 4.00000000000000000000, 3.00000000000000000000, 4.00000000000000000000, 4.00000000000000000000, 4.00000000000000000000, 4.00000000000000000000, 4.00000000000000000000, 4.00000000000000000000, 4.00000000000000000000, 4.00000000000000000000, 4.00000000000000000000, 4.00000000000000000000, 1673.00000000000000000000, 1683.00000000000000000000, 0.00000000000000000000
38.00000000000000000000, 0.00000000000000000000, 4328.71784286699950000000, 5376.41012493989090000000, 4376.92296989335860000000, 5028.20500524948780000000, 4995.89731373182170000000, 4292.30758734708980000000, 4055.89733671781730000000, 4397.94861040485560000000, 4465.12809594158990000000, 4651.79475804366210000000, 4262.56399833082560000000, 4040.51272170940500000000, 5288.71781939193990000000, 4430.76912242280200000000, 0.00000000000000000000, 4.00000000000000000000, 4.00000000000000000000, 4.00000000000000000000, 4.00000000000000000000, 4.00000000000000000000, 3.00000000000000000000, 4.00000000000000000000, 4.00000000000000000000, 4.00000000000000000000, 4.00000000000000000000, 4.00000000000000000000, 4.00000000000000000000, 4.00000000000000000000, 4.00000000000000000000, 4.00000000000000000000, 4.00000000000000000000, 1674.00000000000000000000, 1683.00000000000000000000, 0.00000000000000000000
39.00000000000000000000, 0.00000000000000000000, 4326.15374036559750000000, 5372.82038143792850000000, 4373.84604689167550000000, 5030.25628725060960000000, 4988.20500622761570000000, 4294.35886934821160000000, 4061.53836222090190000000, 4399.99989240597730000000, 4459.48707043850570000000, 4642.56398903861460000000, 4258.97425482886230000000, 4036.41015770716150000000, 5282.56397338857460000000, 4432.30758392364350000000, 0.00000000000000000000, 4.00000000000000000000, 4.00000000000000000000, 4.00000000000000000000, 4.00000000000000000000, 4.00000000000000000000, 3.00000000000000000000, 4.00000000000000000000, 4.00000000000000000000, 4.00000000000000000000, 4.00000000000000000000, 4.00000000000000000000, 4.00000000000000000000, 4.00000000000000000000, 4.00000000000000000000, 4.00000000000000000000, 4.00000000000000000000, 1675.00000000000000000000, 1683.00000000000000000000, 0.00000000000000000000
40.00000000000000000000, 0.00000000000000000000, 4314.35886885914720000000, 5356.41012542895440000000, 4368.71784188887160000000, 5022.56397974640370000000, 4979.99987822312870000000, 4298.97425385073530000000, 4070.25631072566920000000, 4399.99989240597730000000, 4447.17937843177510000000, 4631.28193803244540000000, 4250.76912682437610000000, 4024.61528620071200000000, 5273.84602488380730000000, 4424.10245591915650000000, 0.00000000000000000000, 4.00000000000000000000, 4.00000000000000000000, 4.00000000000000000000, 4.00000000000000000000, 4.00000000000000000000, 3.00000000000000000000, 4.00000000000000000000, 4.00000000000000000000, 4.00000000000000000000, 4.00000000000000000000, 4.00000000000000000000, 4.00000000000000000000, 4.00000000000000000000, 4.00000000000000000000, 4.00000000000000000000, 4.00000000000000000000, 1675.00000000000000000000, 1681.00000000000000000000, 0.00000000000000000000
41.00000000000000000000, 0.00000000000000000000, 4304.61527935381950000000, 5336.92294641829900000000, 4362.05117538522610000000, 5013.33321074135620000000, 4974.87167322032470000000, 4302.56399735269770000000, 4074.87169522819290000000, 4395.89732840373380000000, 4431.79476342336330000000, 4616.41014352431280000000, 4237.43579381708510000000, 4013.33323519454280000000, 5258.46140987539550000000, 4409.23066141102480000000, 0.00000000000000000000, 4.00000000000000000000, 4.00000000000000000000, 4.00000000000000000000, 4.00000000000000000000, 4.00000000000000000000, 3.00000000000000000000, 4.00000000000000000000, 4.00000000000000000000, 4.00000000000000000000, 4.00000000000000000000, 4.00000000000000000000, 4.00000000000000000000, 4.00000000000000000000, 4.00000000000000000000, 4.00000000000000000000, 4.00000000000000000000, 1675.00000000000000000000, 1682.00000000000000000000, 0.00000000000000000000
42.00000000000000000000, 0.00000000000000000000, 4307.69220235550260000000, 5336.92294641829900000000, 4359.99989338410430000000, 5013.84603124163640000000, 4973.84603221976340000000, 4305.12809985409970000000, 4073.84605422763210000000, 4386.15373889840610000000, 4422.56399441831580000000, 4599.48706701505940000000, 4234.87169131568320000000, 4012.82041469426260000000, 5249.23064087034800000000, 4409.23066141102480000000, 0.00000000000000000000, 4.00000000000000000000, 4.00000000000000000000, 4.00000000000000000000, 4.00000000000000000000, 4.00000000000000000000, 3.00000000000000000000, 4.00000000000000000000, 4.00000000000000000000, 4.00000000000000000000, 4.00000000000000000000, 4.00000000000000000000, 4.00000000000000000000, 4.00000000000000000000, 4.00000000000000000000, 4.00000000000000000000, 4.00000000000000000000, 1677.00000000000000000000, 1680.00000000000000000000, 0.00000000000000000000
43.00000000000000000000, 0.00000000000000000000, 4308.71784335606300000000, 5333.84602341661680000000, 4361.02553438466570000000, 5014.35885174191660000000, 4973.33321171948320000000, 4308.71784335606300000000, 4078.97425923043600000000, 4374.35886739195670000000, 4421.53835341775450000000, 4595.89732351309610000000, 4242.56399881988910000000, 4018.46144019734720000000, 5252.30756387203020000000, 4413.84604591354860000000, 0.00000000000000000000, 4.00000000000000000000, 4.00000000000000000000, 4.00000000000000000000, 4.00000000000000000000, 4.00000000000000000000, 3.00000000000000000000, 4.00000000000000000000, 4.00000000000000000000, 4.00000000000000000000, 4.00000000000000000000, 4.00000000000000000000, 4.00000000000000000000, 4.00000000000000000000, 4.00000000000000000000, 4.00000000000000000000, 4.00000000000000000000, 1676.00000000000000000000, 1681.00000000000000000000, 0.00000000000000000000
44.00000000000000000000, 0.00000000000000000000, 4306.66656135494120000000, 5319.48704940876450000000, 4366.66655988774980000000, 5013.84603124163640000000, 4969.23064771723970000000, 4311.28194585746500000000, 4088.20502823548350000000, 4372.82040589111510000000, 4423.07681491859600000000, 4606.15373351870490000000, 4245.64092182157130000000, 4025.12810670099220000000, 5254.87166637343220000000, 4414.35886641382880000000, 0.00000000000000000000, 4.00000000000000000000, 4.00000000000000000000, 4.00000000000000000000, 4.00000000000000000000, 4.00000000000000000000, 3.00000000000000000000, 4.00000000000000000000, 4.00000000000000000000, 4.00000000000000000000, 4.00000000000000000000, 4.00000000000000000000, 4.00000000000000000000, 4.00000000000000000000, 4.00000000000000000000, 4.00000000000000000000, 4.00000000000000000000, 1678.00000000000000000000, 1682.00000000000000000000, 0.00000000000000000000
45.00000000000000000000, 0.00000000000000000000, 4322.56399686363420000000, 5324.61525441156850000000, 4377.43579039363890000000, 5023.07680024668390000000, 4959.48705821191200000000, 4306.15374085466100000000, 4087.69220773520330000000, 4381.02553389560220000000, 4428.71784042168020000000, 4617.94860502515440000000, 4255.89733182718010000000, 4038.97426020856350000000, 5254.35884587315190000000, 4426.15373792027820000000, 0.00000000000000000000, 4.00000000000000000000, 4.00000000000000000000, 4.00000000000000000000, 4.00000000000000000000, 4.00000000000000000000, 3.00000000000000000000, 4.00000000000000000000, 4.00000000000000000000, 4.00000000000000000000, 4.00000000000000000000, 4.00000000000000000000, 4.00000000000000000000, 4.00000000000000000000, 4.00000000000000000000, 4.00000000000000000000, 4.00000000000000000000, 1677.00000000000000000000, 1683.00000000000000000000, 0.00000000000000000000
46.00000000000000000000, 0.00000000000000000000, 4336.92297087148560000000, 5331.79474141549510000000, 4386.15373889840610000000, 5030.76910775088980000000, 4943.58962270321900000000, 4297.43579234989370000000, 4077.94861822987510000000, 4390.25630290064960000000, 4443.58963492981270000000, 4629.74347653160380000000, 4267.17938283334930000000, 4051.79477271557430000000, 5251.79474337175000000000, 4443.58963492981270000000, 0.00000000000000000000, 4.00000000000000000000, 4.00000000000000000000, 4.00000000000000000000, 4.00000000000000000000, 4.00000000000000000000, 3.00000000000000000000, 4.00000000000000000000, 4.00000000000000000000, 4.00000000000000000000, 4.00000000000000000000, 4.00000000000000000000, 4.00000000000000000000, 4.00000000000000000000, 4.00000000000000000000, 4.00000000000000000000, 4.00000000000000000000, 1678.00000000000000000000, 1684.00000000000000000000, 0.00000000000000000000
47.00000000000000000000, 0.00000000000000000000, 4327.69220186643820000000, 5314.35884440596060000000, 4384.10245689728440000000, 5022.56397974640370000000, 4928.20500769480620000000, 4295.38451034877200000000, 4073.33323372735140000000, 4399.99989240597730000000, 4460.51271143906620000000, 4642.56398903861460000000, 4260.51271632970380000000, 4047.17938821305050000000, 5242.56397436670250000000, 4437.94860942672770000000, 0.00000000000000000000, 4.00000000000000000000, 4.00000000000000000000, 4.00000000000000000000, 4.00000000000000000000, 4.00000000000000000000, 3.00000000000000000000, 4.00000000000000000000, 4.00000000000000000000, 4.00000000000000000000, 4.00000000000000000000, 4.00000000000000000000, 4.00000000000000000000, 4.00000000000000000000, 4.00000000000000000000, 4.00000000000000000000, 4.00000000000000000000, 1677.00000000000000000000, 1683.00000000000000000000, 0.00000000000000000000
48.00000000000000000000, 0.00000000000000000000, 4321.02553536279270000000, 5303.58961390007150000000, 4379.48707239476060000000, 5018.46141574416010000000, 4923.58962319228250000000, 4296.92297184961350000000, 4079.48707973071670000000, 4407.69219991018330000000, 4464.61527544130970000000, 4646.15373254057700000000, 4255.38451132689990000000, 4035.89733720688130000000, 5231.79474386081350000000, 4426.15373792027820000000, 0.00000000000000000000, 4.00000000000000000000, 4.00000000000000000000, 4.00000000000000000000, 4.00000000000000000000, 4.00000000000000000000, 3.00000000000000000000, 4.00000000000000000000, 4.00000000000000000000, 4.00000000000000000000, 4.00000000000000000000, 4.00000000000000000000, 4.00000000000000000000, 4.00000000000000000000, 4.00000000000000000000, 4.00000000000000000000, 4.00000000000000000000, 1676.00000000000000000000, 1685.00000000000000000000, 0.00000000000000000000
49.00000000000000000000, 0.00000000000000000000, 4332.30758636896190000000, 5312.82038290511900000000, 4385.64091839812590000000, 5027.69218474920760000000, 4922.56398219172210000000, 4297.43579234989370000000, 4090.25631023660530000000, 4414.87168691410900000000, 4465.64091644187010000000, 4648.20501454169880000000, 4261.53835733026430000000, 4041.02554220968520000000, 5223.58961585632640000000, 4437.43578892644750000000, 0.00000000000000000000, 4.00000000000000000000, 4.00000000000000000000, 4.00000000000000000000, 4.00000000000000000000, 4.00000000000000000000, 3.00000000000000000000, 4.00000000000000000000, 4.00000000000000000000, 4.00000000000000000000, 4.00000000000000000000, 4.00000000000000000000, 4.00000000000000000000, 4.00000000000000000000, 4.00000000000000000000, 4.00000000000000000000, 4.00000000000000000000, 1675.00000000000000000000, 1685.00000000000000000000, 0.00000000000000000000
50.00000000000000000000, 0.00000000000000000000, 4336.41015037120540000000, 5306.15371640147350000000, 4388.71784139980810000000, 5027.17936424892740000000, 4917.43577718891810000000, 4296.92297184961350000000, 4093.33323323828790000000, 4415.89732791467030000000, 4464.61527544130970000000, 4652.82039904422250000000, 4258.97425482886230000000, 4050.25631121473270000000, 5217.94859035324230000000, 4444.10245543009300000000, 0.00000000000000000000, 4.00000000000000000000, 4.00000000000000000000, 4.00000000000000000000, 4.00000000000000000000, 4.00000000000000000000, 3.00000000000000000000, 4.00000000000000000000, 4.00000000000000000000, 4.00000000000000000000, 4.00000000000000000000, 4.00000000000000000000, 4.00000000000000000000, 4.00000000000000000000, 4.00000000000000000000, 4.00000000000000000000, 4.00000000000000000000, 1673.00000000000000000000, 1685.00000000000000000000, 0.00000000000000000000
51.00000000000000000000, 0.00000000000000000000, 4325.12809936503620000000, 5285.12807588997660000000, 4377.43579039363890000000, 5013.33321074135620000000, 4906.66654668302910000000, 4298.97425385073530000000, 4087.17938723492310000000, 4404.61527690850110000000, 4446.66655793149490000000, 4641.02552753777310000000, 4244.61528082101090000000, 4038.46143970828330000000, 5204.61525734595120000000, 4429.74348142224150000000, 0.00000000000000000000, 4.00000000000000000000, 4.00000000000000000000, 4.00000000000000000000, 4.00000000000000000000, 4.00000000000000000000, 3.00000000000000000000, 4.00000000000000000000, 4.00000000000000000000, 4.00000000000000000000, 4.00000000000000000000, 4.00000000000000000000, 4.00000000000000000000, 4.00000000000000000000, 4.00000000000000000000, 4.00000000000000000000, 4.00000000000000000000, 1673.00000000000000000000, 1685.00000000000000000000, 0.00000000000000000000
52.00000000000000000000, 0.00000000000000000000, 4319.48707386195200000000, 5278.97422988661220000000, 4369.74348288943290000000, 5008.71782623883250000000, 4890.76911117433610000000, 4304.61527935381950000000, 4081.53836173183840000000, 4395.38450790345360000000, 4427.69219942111980000000, 4615.38450252375240000000, 4233.33322981484160000000, 4024.10246570043140000000, 5182.56397583389300000000, 4419.99989191691380000000, 0.00000000000000000000, 4.00000000000000000000, 4.00000000000000000000, 4.00000000000000000000, 4.00000000000000000000, 4.00000000000000000000, 3.00000000000000000000, 4.00000000000000000000, 4.00000000000000000000, 4.00000000000000000000, 4.00000000000000000000, 4.00000000000000000000, 4.00000000000000000000, 4.00000000000000000000, 4.00000000000000000000, 4.00000000000000000000, 4.00000000000000000000, 1671.00000000000000000000, 1684.00000000000000000000, 0.00000000000000000000
53.00000000000000000000, 0.00000000000000000000, 4321.02553536279270000000, 5276.92294788549040000000, 4375.38450839251710000000, 5012.82039024107510000000, 4886.15372667181240000000, 4305.64092035438080000000, 4083.07682323267950000000, 4393.33322590233180000000, 4426.66655842055840000000, 4612.30757952207020000000, 4235.38451181596340000000, 4029.74349120351600000000, 5174.87166832968710000000, 4425.64091741999800000000, 0.00000000000000000000, 4.00000000000000000000, 4.00000000000000000000, 4.00000000000000000000, 4.00000000000000000000, 4.00000000000000000000, 3.00000000000000000000, 4.00000000000000000000, 4.00000000000000000000, 4.00000000000000000000, 4.00000000000000000000, 4.00000000000000000000, 4.00000000000000000000, 4.00000000000000000000, 4.00000000000000000000, 4.00000000000000000000, 4.00000000000000000000, 1671.00000000000000000000, 1683.00000000000000000000, 0.00000000000000000000
54.00000000000000000000, 0.00000000000000000000, 4321.02553536279270000000, 5269.23064038128360000000, 4378.97425189448040000000, 5011.28192874023440000000, 4891.79475217489740000000, 4299.99989485129570000000, 4084.10246423324040000000, 4383.58963639700410000000, 4430.76912242280200000000, 4627.69219453048210000000, 4246.15374232185240000000, 4039.48708070884410000000, 5183.58961683445430000000, 4430.76912242280200000000, 0.00000000000000000000, 4.00000000000000000000, 4.00000000000000000000, 4.00000000000000000000, 4.00000000000000000000, 4.00000000000000000000, 3.00000000000000000000, 4.00000000000000000000, 4.00000000000000000000, 4.00000000000000000000, 4.00000000000000000000, 4.00000000000000000000, 4.00000000000000000000, 4.00000000000000000000, 4.00000000000000000000, 4.00000000000000000000, 4.00000000000000000000, 1669.00000000000000000000, 1683.00000000000000000000, 0.00000000000000000000
55.00000000000000000000, 0.00000000000000000000, 4318.97425336167090000000, 5266.15371737960140000000, 4377.94861089391910000000, 5008.20500573855130000000, 4887.69218817265390000000, 4294.87168984849180000000, 4077.94861822987510000000, 4375.38450839251710000000, 4423.58963541887620000000, 4621.02552802683660000000, 4245.12810132129110000000, 4035.38451670660060000000, 5178.97423233193060000000, 4429.23066092196130000000, 0.00000000000000000000, 4.00000000000000000000, 4.00000000000000000000, 4.00000000000000000000, 4.00000000000000000000, 4.00000000000000000000, 3.00000000000000000000, 4.00000000000000000000, 4.00000000000000000000, 4.00000000000000000000, 4.00000000000000000000, 4.00000000000000000000, 4.00000000000000000000, 4.00000000000000000000, 4.00000000000000000000, 4.00000000000000000000, 4.00000000000000000000, 1670.00000000000000000000, 1684.00000000000000000000, 0.00000000000000000000
56.00000000000000000000, 0.00000000000000000000, 4317.94861236111050000000, 5264.61525587875990000000, 4379.48707239476060000000, 5008.20500573855130000000, 4874.35885516536290000000, 4297.94861285017400000000, 4075.89733622875380000000, 4385.64091839812590000000, 4428.71784042168020000000, 4612.30757952207020000000, 4240.51271681876730000000, 4035.89733720688130000000, 5161.02551482211580000000, 4427.69219942111980000000, 0.00000000000000000000, 4.00000000000000000000, 4.00000000000000000000, 4.00000000000000000000, 4.00000000000000000000, 4.00000000000000000000, 3.00000000000000000000, 4.00000000000000000000, 4.00000000000000000000, 4.00000000000000000000, 4.00000000000000000000, 4.00000000000000000000, 4.00000000000000000000, 4.00000000000000000000, 4.00000000000000000000, 4.00000000000000000000, 4.00000000000000000000, 1668.00000000000000000000, 1684.00000000000000000000, 0.00000000000000000000
57.00000000000000000000, 0.00000000000000000000, 4318.46143286139070000000, 5252.82038437231040000000, 4383.07681589672300000000, 5011.28192874023440000000, 4871.28193216368070000000, 4301.53835635213730000000, 4079.48707973071670000000, 4401.02553340653780000000, 4452.30758343458000000000, 4630.25629703188410000000, 4252.30758832521680000000, 4046.66656771276980000000, 5159.99987382155540000000, 4434.87168642504550000000, 0.00000000000000000000, 4.00000000000000000000, 4.00000000000000000000, 4.00000000000000000000, 4.00000000000000000000, 4.00000000000000000000, 3.00000000000000000000, 4.00000000000000000000, 4.00000000000000000000, 4.00000000000000000000, 4.00000000000000000000, 4.00000000000000000000, 4.00000000000000000000, 4.00000000000000000000, 4.00000000000000000000, 4.00000000000000000000, 4.00000000000000000000, 1669.00000000000000000000, 1684.00000000000000000000, 0.00000000000000000000
58.00000000000000000000, 0.00000000000000000000, 4319.48707386195200000000, 5244.10243586754310000000, 4380.51271339532100000000, 5013.84603124163640000000, 4873.84603466508270000000, 4302.05117685241750000000, 4077.94861822987510000000, 4408.20502041046350000000, 4463.58963444074930000000, 4650.76911704310080000000, 4260.51271632970380000000, 4049.74349071445250000000, 5170.76910432744350000000, 4444.10245543009300000000, 0.00000000000000000000, 4.00000000000000000000, 4.00000000000000000000, 4.00000000000000000000, 4.00000000000000000000, 4.00000000000000000000, 3.00000000000000000000, 4.00000000000000000000, 4.00000000000000000000, 4.00000000000000000000, 4.00000000000000000000, 4.00000000000000000000, 4.00000000000000000000, 4.00000000000000000000, 4.00000000000000000000, 4.00000000000000000000, 4.00000000000000000000, 1670.00000000000000000000, 1683.00000000000000000000, 0.00000000000000000000
59.00000000000000000000, 0.00000000000000000000, 4321.02553536279270000000, 5247.17935886922620000000, 4376.41014939307840000000, 5008.71782623883250000000, 4875.38449616592330000000, 4306.66656135494120000000, 4078.97425923043600000000, 4417.94860991579210000000, 4459.48707043850570000000, 4656.41014254618590000000, 4255.89733182718010000000, 4047.17938821305050000000, 5163.58961732351780000000, 4445.12809643065430000000, 0.00000000000000000000, 4.00000000000000000000, 4.00000000000000000000, 4.00000000000000000000, 4.00000000000000000000, 4.00000000000000000000, 3.00000000000000000000, 4.00000000000000000000, 4.00000000000000000000, 4.00000000000000000000, 4.00000000000000000000, 4.00000000000000000000, 4.00000000000000000000, 4.00000000000000000000, 4.00000000000000000000, 4.00000000000000000000, 4.00000000000000000000, 1669.00000000000000000000, 1685.00000000000000000000, 0.00000000000000000000
60.00000000000000000000, 0.00000000000000000000, 4321.02553536279270000000, 5243.07679486698270000000, 4377.43579039363890000000, 5002.05115973518700000000, 4872.30757316424110000000, 4310.76912535718470000000, 4093.84605373856810000000, 4425.12809691971780000000, 4461.02553193934640000000, 4655.89732204590560000000, 4254.35887032633850000000, 4045.12810621192880000000, 5145.64089981370310000000, 4440.51271192813060000000, 0.00000000000000000000, 4.00000000000000000000, 4.00000000000000000000, 4.00000000000000000000, 4.00000000000000000000, 4.00000000000000000000, 3.00000000000000000000, 4.00000000000000000000, 4.00000000000000000000, 4.00000000000000000000, 4.00000000000000000000, 4.00000000000000000000, 4.00000000000000000000, 4.00000000000000000000, 4.00000000000000000000, 4.00000000000000000000, 4.00000000000000000000, 1670.00000000000000000000, 1684.00000000000000000000, 0.00000000000000000000
61.00000000000000000000, 0.00000000000000000000, 4318.46143286139070000000, 5231.79474386081350000000, 4378.46143139419930000000, 5004.10244173630870000000, 4856.92295815582840000000, 4307.17938185522140000000, 4106.66656624557890000000, 4417.94860991579210000000, 4458.46142943794440000000, 4652.30757854394230000000, 4251.28194732465640000000, 4041.53836270996590000000, 5135.38448980809520000000, 4433.84604542448510000000, 0.00000000000000000000, 4.00000000000000000000, 4.00000000000000000000, 4.00000000000000000000, 4.00000000000000000000, 4.00000000000000000000, 3.00000000000000000000, 4.00000000000000000000, 4.00000000000000000000, 4.00000000000000000000, 4.00000000000000000000, 4.00000000000000000000, 4.00000000000000000000, 4.00000000000000000000, 4.00000000000000000000, 4.00000000000000000000, 4.00000000000000000000, 1670.00000000000000000000, 1684.00000000000000000000, 0.00000000000000000000
62.00000000000000000000, 0.00000000000000000000, 4312.82040735830650000000, 5224.10243635660750000000, 4373.84604689167550000000, 5006.15372373742960000000, 4839.48706114629480000000, 4305.64092035438080000000, 4109.23066874698090000000, 4412.82040491298720000000, 4446.66655793149490000000, 4642.05116853833440000000, 4239.48707581820690000000, 4032.30759370491840000000, 5120.51269529996260000000, 4421.53835341775450000000, 0.00000000000000000000, 4.00000000000000000000, 4.00000000000000000000, 4.00000000000000000000, 4.00000000000000000000, 4.00000000000000000000, 3.00000000000000000000, 4.00000000000000000000, 4.00000000000000000000, 4.00000000000000000000, 4.00000000000000000000, 4.00000000000000000000, 4.00000000000000000000, 4.00000000000000000000, 4.00000000000000000000, 4.00000000000000000000, 4.00000000000000000000, 1672.00000000000000000000, 1684.00000000000000000000, 0.00000000000000000000
63.00000000000000000000, 0.00000000000000000000, 4303.07681785297880000000, 5214.87166735156010000000, 4368.71784188887160000000, 5003.07680073574740000000, 4829.23065114068590000000, 4305.12809985409970000000, 4111.79477124838290000000, 4413.84604591354860000000, 4441.02553242841080000000, 4634.87168153440780000000, 4230.25630681315940000000, 4025.64092720127290000000, 5103.07679829042900000000, 4413.33322541326830000000, 0.00000000000000000000, 4.00000000000000000000, 4.00000000000000000000, 4.00000000000000000000, 4.00000000000000000000, 4.00000000000000000000, 3.00000000000000000000, 4.00000000000000000000, 4.00000000000000000000, 4.00000000000000000000, 4.00000000000000000000, 4.00000000000000000000, 4.00000000000000000000, 4.00000000000000000000, 4.00000000000000000000, 4.00000000000000000000, 4.00000000000000000000, 1673.00000000000000000000, 1684.00000000000000000000, 0.00000000000000000000
64.00000000000000000000, 0.00000000000000000000, 4297.94861285017400000000, 5206.66653934707300000000, 4367.17938038803090000000, 4997.94859573294340000000, 4819.48706163535830000000, 4298.46143335045510000000, 4106.66656624557890000000, 4398.97425140541600000000, 4431.28194292308220000000, 4627.17937403020190000000, 4231.28194781371990000000, 4024.61528620071200000000, 5098.46141378790530000000, 4414.87168691410900000000, 410.00000000000000000000, 4.00000000000000000000, 4.00000000000000000000, 4.00000000000000000000, 4.00000000000000000000, 4.00000000000000000000, 3.00000000000000000000, 4.00000000000000000000, 4.00000000000000000000, 4.00000000000000000000, 4.00000000000000000000, 4.00000000000000000000, 4.00000000000000000000, 4.00000000000000000000, 4.00000000000000000000, 4.00000000000000000000, 4.00000000000000000000, 1674.00000000000000000000, 1683.00000000000000000000, 0.00000000000000000000
65.00000000000000000000, 0.00000000000000000000, 4303.58963835325900000000, 5200.51269334370770000000, 4370.25630338971310000000, 4998.46141623322360000000, 4813.84603613227410000000, 4295.89733084905220000000, 4093.84605373856810000000, 4384.61527739756460000000, 4419.99989191691380000000, 4623.58963052823860000000, 4233.33322981484160000000, 4025.64092720127290000000, 5091.79474728425980000000, 4418.97425091635250000000, 446.00000000000000000000, 4.00000000000000000000, 4.00000000000000000000, 4.00000000000000000000, 4.00000000000000000000, 4.00000000000000000000, 3.00000000000000000000, 4.00000000000000000000, 4.00000000000000000000, 4.00000000000000000000, 4.00000000000000000000, 4.00000000000000000000, 4.00000000000000000000, 4.00000000000000000000, 4.00000000000000000000, 4.00000000000000000000, 4.00000000000000000000, 1674.00000000000000000000, 1684.00000000000000000000, 0.00000000000000000000
66.00000000000000000000, 0.00000000000000000000, 4314.35886885914720000000, 5197.94859084230570000000, 4377.94861089391910000000, 5001.53833923490580000000, 4813.84603613227410000000, 4298.97425385073530000000, 4088.71784873576420000000, 4398.97425140541600000000, 4428.71784042168020000000, 4637.43578403580980000000, 4241.53835781932870000000, 4033.33323470547930000000, 5083.07679877949250000000, 4424.10245591915650000000, 416.00000000000000000000, 4.00000000000000000000, 4.00000000000000000000, 4.00000000000000000000, 4.00000000000000000000, 4.00000000000000000000, 3.00000000000000000000, 4.00000000000000000000, 4.00000000000000000000, 4.00000000000000000000, 4.00000000000000000000, 4.00000000000000000000, 4.00000000000000000000, 4.00000000000000000000, 4.00000000000000000000, 4.00000000000000000000, 4.00000000000000000000, 1675.00000000000000000000, 1685.00000000000000000000, 0.00000000000000000000
67.00000000000000000000, 0.00000000000000000000, 4323.07681736391440000000, 5205.64089834651260000000, 4384.61527739756460000000, 5006.66654423771070000000, 4813.33321563199300000000, 4297.43579234989370000000, 4088.71784873576420000000, 4414.87168691410900000000, 4447.17937843177510000000, 4656.41014254618590000000, 4255.38451132689990000000, 4043.07682421080700000000, 5093.84602928538150000000, 4434.35886592476530000000, 423.00000000000000000000, 4.00000000000000000000, 4.00000000000000000000, 4.00000000000000000000, 4.00000000000000000000, 4.00000000000000000000, 3.00000000000000000000, 4.00000000000000000000, 4.00000000000000000000, 4.00000000000000000000, 4.00000000000000000000, 4.00000000000000000000, 4.00000000000000000000, 4.00000000000000000000, 4.00000000000000000000, 4.00000000000000000000, 4.00000000000000000000, 1674.00000000000000000000, 1684.00000000000000000000, 0.00000000000000000000
68.00000000000000000000, 0.00000000000000000000, 4329.74348386755990000000, 5211.28192384959680000000, 4385.12809789784480000000, 5020.51269774528190000000, 4809.23065162974940000000, 4299.48707435101550000000, 4088.71784873576420000000, 4416.92296891523070000000, 4457.94860893766420000000, 4662.05116804927000000000, 4259.99989582942360000000, 4046.66656771276980000000, 5096.41013178678350000000, 4440.51271192813060000000, 448.00000000000000000000, 4.00000000000000000000, 4.00000000000000000000, 4.00000000000000000000, 4.00000000000000000000, 4.00000000000000000000, 3.00000000000000000000, 4.00000000000000000000, 4.00000000000000000000, 4.00000000000000000000, 4.00000000000000000000, 4.00000000000000000000, 4.00000000000000000000, 4.00000000000000000000, 4.00000000000000000000, 4.00000000000000000000, 4.00000000000000000000, 1675.00000000000000000000, 1684.00000000000000000000, 0.00000000000000000000
69.00000000000000000000, 0.00000000000000000000, 4326.66656086587770000000, 5201.02551384398880000000, 4383.58963639700410000000, 5027.17936424892740000000, 4803.58962612666530000000, 4304.10245885353920000000, 4092.82041273800720000000, 4420.51271241719410000000, 4462.56399344018790000000, 4666.15373205151350000000, 4254.35887032633850000000, 4045.12810621192880000000, 5077.43577327640830000000, 4434.87168642504550000000, 345.00000000000000000000, 4.00000000000000000000, 4.00000000000000000000, 4.00000000000000000000, 4.00000000000000000000, 4.00000000000000000000, 3.00000000000000000000, 4.00000000000000000000, 4.00000000000000000000, 4.00000000000000000000, 4.00000000000000000000, 4.00000000000000000000, 4.00000000000000000000, 4.00000000000000000000, 4.00000000000000000000, 4.00000000000000000000, 4.00000000000000000000, 1674.00000000000000000000, 1683.00000000000000000000, 0.00000000000000000000
70.00000000000000000000, 0.00000000000000000000, 4313.84604835886690000000, 5187.17936033641670000000, 4376.41014939307840000000, 5007.17936473799090000000, 4796.92295962301980000000, 4298.46143335045510000000, 4093.84605373856810000000, 4418.46143041607230000000, 4454.87168593598200000000, 4670.25629605375710000000, 4245.64092182157130000000, 4040.51272170940500000000, 5066.66654277051930000000, 4423.58963541887620000000, 456.00000000000000000000, 4.00000000000000000000, 4.00000000000000000000, 4.00000000000000000000, 4.00000000000000000000, 4.00000000000000000000, 3.00000000000000000000, 4.00000000000000000000, 4.00000000000000000000, 4.00000000000000000000, 4.00000000000000000000, 4.00000000000000000000, 4.00000000000000000000, 4.00000000000000000000, 4.00000000000000000000, 4.00000000000000000000, 4.00000000000000000000, 1676.00000000000000000000, 1685.00000000000000000000, 0.00000000000000000000
71.00000000000000000000, 0.00000000000000000000, 4304.10245885353920000000, 5174.87166832968710000000, 4367.17938038803090000000, 4986.66654472677420000000, 4786.66654961741190000000, 4292.82040784737000000000, 4088.71784873576420000000, 4408.71784091074460000000, 4439.99989142784940000000, 4661.53834754898980000000, 4234.87169131568320000000, 4031.79477320463770000000, 5053.33320976322830000000, 4414.35886641382880000000, 426.00000000000000000000, 4.00000000000000000000, 4.00000000000000000000, 4.00000000000000000000, 4.00000000000000000000, 4.00000000000000000000, 3.00000000000000000000, 4.00000000000000000000, 4.00000000000000000000, 4.00000000000000000000, 4.00000000000000000000, 4.00000000000000000000, 4.00000000000000000000, 4.00000000000000000000, 4.00000000000000000000, 4.00000000000000000000, 4.00000000000000000000, 1676.00000000000000000000, 1683.00000000000000000000, 0.00000000000000000000
72.00000000000000000000, 0.00000000000000000000, 4307.17938185522140000000, 5165.64089932463960000000, 4366.15373938746960000000, 5007.69218523827110000000, 4779.48706261348620000000, 4298.97425385073530000000, 4097.94861774081160000000, 4408.71784091074460000000, 4437.43578892644750000000, 4654.35886054506410000000, 4229.74348631287920000000, 4028.71785020295560000000, 5038.46141525509670000000, 4415.38450741439010000000, 371.00000000000000000000, 4.00000000000000000000, 4.00000000000000000000, 4.00000000000000000000, 4.00000000000000000000, 4.00000000000000000000, 3.00000000000000000000, 4.00000000000000000000, 4.00000000000000000000, 4.00000000000000000000, 4.00000000000000000000, 4.00000000000000000000, 4.00000000000000000000, 4.00000000000000000000, 4.00000000000000000000, 4.00000000000000000000, 4.00000000000000000000, 1675.00000000000000000000, 1685.00000000000000000000, 0.00000000000000000000
73.00000000000000000000, 0.00000000000000000000, 4313.33322785858670000000, 5168.71782232632180000000, 4372.82040589111510000000, 5031.79474875145120000000, 4782.05116511488810000000, 4310.25630485690450000000, 4110.76913024782240000000, 4414.35886641382880000000, 4444.10245543009300000000, 4659.99988604814830000000, 4233.33322981484160000000, 4031.79477320463770000000, 5040.51269725621750000000, 4417.94860991579210000000, 414.00000000000000000000, 4.00000000000000000000, 4.00000000000000000000, 4.00000000000000000000, 4.00000000000000000000, 4.00000000000000000000, 3.00000000000000000000, 4.00000000000000000000, 4.00000000000000000000, 4.00000000000000000000, 4.00000000000000000000, 4.00000000000000000000, 4.00000000000000000000, 4.00000000000000000000, 4.00000000000000000000, 4.00000000000000000000, 4.00000000000000000000, 1677.00000000000000000000, 1685.00000000000000000000, 0.00000000000000000000
74.00000000000000000000, 0.00000000000000000000, 4310.76912535718470000000, 5166.66654032520090000000, 4373.33322639139530000000, 5009.23064673911270000000, 4783.07680611544860000000, 4313.84604835886690000000, 4106.66656624557890000000, 4410.25630241158520000000, 4439.99989142784940000000, 4663.07680904983140000000, 4229.23066581259810000000, 4030.25631170379670000000, 5038.97423575537690000000, 4414.35886641382880000000, 417.00000000000000000000, 4.00000000000000000000, 4.00000000000000000000, 4.00000000000000000000, 4.00000000000000000000, 4.00000000000000000000, 3.00000000000000000000, 4.00000000000000000000, 4.00000000000000000000, 4.00000000000000000000, 4.00000000000000000000, 4.00000000000000000000, 4.00000000000000000000, 4.00000000000000000000, 4.00000000000000000000, 4.00000000000000000000, 4.00000000000000000000, 1675.00000000000000000000, 1684.00000000000000000000, 0.00000000000000000000
75.00000000000000000000, 0.00000000000000000000, 4308.71784335606300000000, 5153.84602781819010000000, 4371.28194439027360000000, 4990.25628822873750000000, 4778.97424211320500000000, 4310.76912535718470000000, 4097.94861774081160000000, 4404.10245640822090000000, 4430.25630192252170000000, 4661.02552704870960000000, 4223.58964030951390000000, 4029.74349120351600000000, 5025.12808224780570000000, 4413.33322541326830000000, 399.00000000000000000000, 4.00000000000000000000, 4.00000000000000000000, 4.00000000000000000000, 4.00000000000000000000, 4.00000000000000000000, 3.00000000000000000000, 4.00000000000000000000, 4.00000000000000000000, 4.00000000000000000000, 4.00000000000000000000, 4.00000000000000000000, 4.00000000000000000000, 4.00000000000000000000, 4.00000000000000000000, 4.00000000000000000000, 4.00000000000000000000, 1674.00000000000000000000, 1684.00000000000000000000, 0.00000000000000000000
76.00000000000000000000, 0.00000000000000000000, 4312.82040735830650000000, 5152.30756631734860000000, 4373.33322639139530000000, 5013.84603124163640000000, 4774.87167811096150000000, 4311.28194585746500000000, 4095.38451523940970000000, 4404.10245640822090000000, 4430.76912242280200000000, 4666.15373205151350000000, 4226.15374281091590000000, 4031.79477320463770000000, 5022.05115924612260000000, 4415.38450741439010000000, 416.00000000000000000000, 4.00000000000000000000, 4.00000000000000000000, 4.00000000000000000000, 4.00000000000000000000, 4.00000000000000000000, 3.00000000000000000000, 4.00000000000000000000, 4.00000000000000000000, 4.00000000000000000000, 4.00000000000000000000, 4.00000000000000000000, 4.00000000000000000000, 4.00000000000000000000, 4.00000000000000000000, 4.00000000000000000000, 4.00000000000000000000, 1673.00000000000000000000, 1683.00000000000000000000, 0.00000000000000000000
77.00000000000000000000, 0.00000000000000000000, 4311.28194585746500000000, 5153.33320731790990000000, 4373.84604689167550000000, 5023.58962074696410000000, 4769.23065260787730000000, 4312.82040735830650000000, 4094.87169473912900000000, 4409.23066141102480000000, 4441.02553242841080000000, 4682.05116756020650000000, 4231.79476831400010000000, 4029.74349120351600000000, 5023.58962074696410000000, 4412.30758441270700000000, 401.00000000000000000000, 4.00000000000000000000, 4.00000000000000000000, 4.00000000000000000000, 4.00000000000000000000, 4.00000000000000000000, 3.00000000000000000000, 4.00000000000000000000, 4.00000000000000000000, 4.00000000000000000000, 4.00000000000000000000, 4.00000000000000000000, 4.00000000000000000000, 4.00000000000000000000, 4.00000000000000000000, 4.00000000000000000000, 4.00000000000000000000, 1672.00000000000000000000, 1683.00000000000000000000, 0.00000000000000000000
78.00000000000000000000, 0.00000000000000000000, 4303.07681785297880000000, 5144.10243831286240000000, 4368.71784188887160000000, 5003.58962123602760000000, 4758.97424260226940000000, 4312.30758685802630000000, 4099.48707924165320000000, 4419.99989191691380000000, 4454.35886543570180000000, 4695.89732106777770000000, 4230.25630681315940000000, 4028.71785020295560000000, 5013.33321074135620000000, 4410.76912291186640000000, 417.00000000000000000000, 4.00000000000000000000, 4.00000000000000000000, 4.00000000000000000000, 4.00000000000000000000, 4.00000000000000000000, 3.00000000000000000000, 4.00000000000000000000, 4.00000000000000000000, 4.00000000000000000000, 4.00000000000000000000, 4.00000000000000000000, 4.00000000000000000000, 4.00000000000000000000, 4.00000000000000000000, 4.00000000000000000000, 4.00000000000000000000, 1671.00000000000000000000, 1683.00000000000000000000, 0.00000000000000000000
79.00000000000000000000, 0.00000000000000000000, 4298.46143335045510000000, 5131.79474630613190000000, 4363.58963688606760000000, 4997.94859573294340000000, 4747.69219159610020000000, 4313.33322785858670000000, 4105.64092524501760000000, 4434.35886592476530000000, 4463.58963444074930000000, 4693.33321856637580000000, 4221.53835830839220000000, 4028.20502970267490000000, 4999.48705723378500000000, 4411.79476391242680000000, 399.00000000000000000000, 4.00000000000000000000, 4.00000000000000000000, 4.00000000000000000000, 4.00000000000000000000, 4.00000000000000000000, 3.00000000000000000000, 4.00000000000000000000, 4.00000000000000000000, 4.00000000000000000000, 4.00000000000000000000, 4.00000000000000000000, 4.00000000000000000000, 4.00000000000000000000, 4.00000000000000000000, 4.00000000000000000000, 4.00000000000000000000, 1671.00000000000000000000, 1682.00000000000000000000, 0.00000000000000000000
80.00000000000000000000, 0.00000000000000000000, 4298.46143335045510000000, 5123.07679780136550000000, 4365.64091888718940000000, 5003.58962123602760000000, 4739.48706359161320000000, 4315.89733035998870000000, 4106.66656624557890000000, 4444.10245543009300000000, 4466.15373694215120000000, 4687.69219306329070000000, 4223.07681980923370000000, 4029.74349120351600000000, 4995.89731373182170000000, 4412.30758441270700000000, 416.00000000000000000000, 4.00000000000000000000, 4.00000000000000000000, 4.00000000000000000000, 4.00000000000000000000, 4.00000000000000000000, 3.00000000000000000000, 4.00000000000000000000, 4.00000000000000000000, 4.00000000000000000000, 4.00000000000000000000, 4.00000000000000000000, 4.00000000000000000000, 4.00000000000000000000, 4.00000000000000000000, 4.00000000000000000000, 4.00000000000000000000, 1671.00000000000000000000, 1682.00000000000000000000, 0.00000000000000000000
81.00000000000000000000, 0.00000000000000000000, 4297.94861285017400000000, 5116.92295179800020000000, 4366.66655988774980000000, 5000.51269823434540000000, 4737.43578159049140000000, 4313.84604835886690000000, 4106.66656624557890000000, 4439.48707092756920000000, 4463.58963444074930000000, 4689.23065456413220000000, 4229.23066581259810000000, 4032.82041420519860000000, 4991.28192922929790000000, 4415.89732791467030000000, 401.00000000000000000000, 4.00000000000000000000, 4.00000000000000000000, 4.00000000000000000000, 4.00000000000000000000, 4.00000000000000000000, 3.00000000000000000000, 4.00000000000000000000, 4.00000000000000000000, 4.00000000000000000000, 4.00000000000000000000, 4.00000000000000000000, 4.00000000000000000000, 4.00000000000000000000, 4.00000000000000000000, 4.00000000000000000000, 4.00000000000000000000, 1672.00000000000000000000, 1683.00000000000000000000, 0.00000000000000000000
82.00000000000000000000, 0.00000000000000000000, 4293.33322834765020000000, 5104.10243929098940000000, 4362.05117538522610000000, 4995.38449323154150000000, 4732.82039708796760000000, 4308.71784335606300000000, 4106.66656624557890000000, 4425.64091741999800000000, 4461.53835243962750000000, 4683.58962906104810000000, 4222.05117880867240000000, 4026.66656820183380000000, 4977.43577572172670000000, 4410.25630241158520000000, 417.00000000000000000000, 4.00000000000000000000, 4.00000000000000000000, 4.00000000000000000000, 4.00000000000000000000, 4.00000000000000000000, 3.00000000000000000000, 4.00000000000000000000, 4.00000000000000000000, 4.00000000000000000000, 4.00000000000000000000, 4.00000000000000000000, 4.00000000000000000000, 4.00000000000000000000, 4.00000000000000000000, 4.00000000000000000000, 4.00000000000000000000, 1671.00000000000000000000, 1683.00000000000000000000, 0.00000000000000000000
83.00000000000000000000, 0.00000000000000000000, 4285.64092084344430000000, 5088.20500378229640000000, 4357.43579088270230000000, 4990.76910872901770000000, 4718.46142308011620000000, 4308.20502285578280000000, 4105.64092524501760000000, 4415.38450741439010000000, 4456.41014743682260000000, 4670.76911655403730000000, 4213.84605080418620000000, 4018.97426069762740000000, 4965.12808371499700000000, 4396.92296940429420000000, 399.00000000000000000000, 4.00000000000000000000, 4.00000000000000000000, 4.00000000000000000000, 4.00000000000000000000, 4.00000000000000000000, 3.00000000000000000000, 4.00000000000000000000, 4.00000000000000000000, 4.00000000000000000000, 4.00000000000000000000, 4.00000000000000000000, 4.00000000000000000000, 4.00000000000000000000, 4.00000000000000000000, 4.00000000000000000000, 4.00000000000000000000, 1673.00000000000000000000, 1683.00000000000000000000, 0.00000000000000000000
84.00000000000000000000, 0.00000000000000000000, 4282.56399784176210000000, 5085.12808078061430000000, 4353.84604738073990000000, 4988.71782672789600000000, 4711.79475657647070000000, 4311.28194585746500000000, 4106.15374574529870000000, 4407.17937940990300000000, 4444.10245543009300000000, 4662.05116804927000000000, 4215.38451230502690000000, 4016.41015819622540000000, 4959.99987871219220000000, 4396.41014890401400000000, 416.00000000000000000000, 4.00000000000000000000, 4.00000000000000000000, 4.00000000000000000000, 4.00000000000000000000, 4.00000000000000000000, 3.00000000000000000000, 4.00000000000000000000, 4.00000000000000000000, 4.00000000000000000000, 4.00000000000000000000, 4.00000000000000000000, 4.00000000000000000000, 4.00000000000000000000, 4.00000000000000000000, 4.00000000000000000000, 4.00000000000000000000, 1672.00000000000000000000, 1684.00000000000000000000, 0.00000000000000000000
85.00000000000000000000, 0.00000000000000000000, 4287.17938234428580000000, 5086.15372178117470000000, 4354.87168838130040000000, 4994.87167273126120000000, 4713.33321807731230000000, 4313.33322785858670000000, 4106.15374574529870000000, 4398.46143090513580000000, 4436.41014792588700000000, 4661.02552704870960000000, 4213.84605080418620000000, 4018.97426069762740000000, 4950.76910970714470000000, 4409.23066141102480000000, 401.00000000000000000000, 4.00000000000000000000, 4.00000000000000000000, 4.00000000000000000000, 4.00000000000000000000, 4.00000000000000000000, 3.00000000000000000000, 4.00000000000000000000, 4.00000000000000000000, 4.00000000000000000000, 4.00000000000000000000, 4.00000000000000000000, 4.00000000000000000000, 4.00000000000000000000, 4.00000000000000000000, 4.00000000000000000000, 4.00000000000000000000, 1673.00000000000000000000, 1681.00000000000000000000, 0.00000000000000000000
86.00000000000000000000, 0.00000000000000000000, 4290.76912584624820000000, 5074.87167077500540000000, 4360.51271388438540000000, 4996.92295473238210000000, 4703.58962857198370000000, 4312.30758685802630000000, 4105.64092524501760000000, 4398.46143090513580000000, 4439.48707092756920000000, 4667.69219355235510000000, 4209.74348680194270000000, 4022.56400419959030000000, 4947.17936620518230000000, 4419.99989191691380000000, 417.00000000000000000000, 4.00000000000000000000, 4.00000000000000000000, 4.00000000000000000000, 4.00000000000000000000, 4.00000000000000000000, 3.00000000000000000000, 4.00000000000000000000, 4.00000000000000000000, 4.00000000000000000000, 4.00000000000000000000, 4.00000000000000000000, 4.00000000000000000000, 4.00000000000000000000, 4.00000000000000000000, 4.00000000000000000000, 4.00000000000000000000, 1672.00000000000000000000, 1681.00000000000000000000, 0.00000000000000000000
87.00000000000000000000, 0.00000000000000000000, 4293.33322834765020000000, 5069.23064527192130000000, 4365.12809838690920000000, 4991.79474972957810000000, 4694.35885956693620000000, 4311.79476635774520000000, 4106.15374574529870000000, 4407.17937940990300000000, 4443.07681442953250000000, 4676.41014205712240000000, 4212.30758930334470000000, 4026.15374770155310000000, 4953.33321220854670000000, 4422.56399441831580000000, 399.00000000000000000000, 4.00000000000000000000, 4.00000000000000000000, 4.00000000000000000000, 4.00000000000000000000, 4.00000000000000000000, 3.00000000000000000000, 4.00000000000000000000, 4.00000000000000000000, 4.00000000000000000000, 4.00000000000000000000, 4.00000000000000000000, 4.00000000000000000000, 4.00000000000000000000, 4.00000000000000000000, 4.00000000000000000000, 4.00000000000000000000, 1673.00000000000000000000, 1682.00000000000000000000, 0.00000000000000000000
88.00000000000000000000, 0.00000000000000000000, 4304.61527935381950000000, 5081.02551677837070000000, 4369.23066238915180000000, 4995.38449323154150000000, 4690.76911606497380000000, 4311.28194585746500000000, 4104.10246374417690000000, 4417.94860991579210000000, 4446.15373743121470000000, 4687.69219306329070000000, 4222.05117880867240000000, 4032.30759370491840000000, 4963.58962221415550000000, 4432.82040442392370000000, 416.00000000000000000000, 4.00000000000000000000, 4.00000000000000000000, 4.00000000000000000000, 4.00000000000000000000, 4.00000000000000000000, 3.00000000000000000000, 4.00000000000000000000, 4.00000000000000000000, 4.00000000000000000000, 4.00000000000000000000, 4.00000000000000000000, 4.00000000000000000000, 4.00000000000000000000, 4.00000000000000000000, 4.00000000000000000000, 4.00000000000000000000, 1673.00000000000000000000, 1680.00000000000000000000, 0.00000000000000000000
89.00000000000000000000, 0.00000000000000000000, 4306.66656135494120000000, 5084.10243978005290000000, 4371.79476489055470000000, 4999.99987773406520000000, 4685.12809056188870000000, 4310.25630485690450000000, 4104.10246374417690000000, 4429.74348142224150000000, 4455.38450643626220000000, 4699.48706456974110000000, 4231.28194781371990000000, 4037.43579870772240000000, 4970.25628871780100000000, 4443.07681442953250000000, 401.00000000000000000000, 4.00000000000000000000, 4.00000000000000000000, 4.00000000000000000000, 4.00000000000000000000, 4.00000000000000000000, 3.00000000000000000000, 4.00000000000000000000, 4.00000000000000000000, 4.00000000000000000000, 4.00000000000000000000, 4.00000000000000000000, 4.00000000000000000000, 4.00000000000000000000, 4.00000000000000000000, 4.00000000000000000000, 4.00000000000000000000, 1672.00000000000000000000, 1682.00000000000000000000, 0.00000000000000000000
90.00000000000000000000, 0.00000000000000000000, 4298.46143335045510000000, 5076.41013227584700000000, 4367.69220088831120000000, 5002.05115973518700000000, 4677.94860355796300000000, 4311.28194585746500000000, 4108.20502774641950000000, 4435.38450692532570000000, 4462.05117293990770000000, 4702.56398757142320000000, 4222.56399930895260000000, 4032.30759370491840000000, 4960.51269921247330000000, 4436.41014792588700000000, 417.00000000000000000000, 4.00000000000000000000, 4.00000000000000000000, 4.00000000000000000000, 4.00000000000000000000, 4.00000000000000000000, 3.00000000000000000000, 4.00000000000000000000, 4.00000000000000000000, 4.00000000000000000000, 4.00000000000000000000, 4.00000000000000000000, 4.00000000000000000000, 4.00000000000000000000, 4.00000000000000000000, 4.00000000000000000000, 4.00000000000000000000, 1672.00000000000000000000, 1680.00000000000000000000, 0.00000000000000000000
91.00000000000000000000, 0.00000000000000000000, 4302.56399735269770000000, 5075.38449127528660000000, 4365.64091888718940000000, 5004.61526223658890000000, 4676.41014205712240000000, 4309.23066385634320000000, 4104.61528424445710000000, 4432.82040442392370000000, 4466.66655744243140000000, 4705.12809007282520000000, 4217.94861480642880000000, 4029.23067070323580000000, 4953.33321220854670000000, 4431.79476342336330000000, 399.00000000000000000000, 4.00000000000000000000, 4.00000000000000000000, 4.00000000000000000000, 4.00000000000000000000, 4.00000000000000000000, 3.00000000000000000000, 4.00000000000000000000, 4.00000000000000000000, 4.00000000000000000000, 4.00000000000000000000, 4.00000000000000000000, 4.00000000000000000000, 4.00000000000000000000, 4.00000000000000000000, 4.00000000000000000000, 4.00000000000000000000, 1672.00000000000000000000, 1680.00000000000000000000, 0.00000000000000000000
92.00000000000000000000, 0.00000000000000000000, 4312.30758685802630000000, 5079.48705527752920000000, 4371.28194439027360000000, 5006.66654423771070000000, 4679.99988555908480000000, 4307.69220235550260000000, 4098.46143824109190000000, 4433.33322492420390000000, 4475.38450594719870000000, 4716.41014107899450000000, 4232.30758881428120000000, 4035.38451670660060000000, 4962.05116071331390000000, 4443.58963492981270000000, 416.00000000000000000000, 4.00000000000000000000, 4.00000000000000000000, 4.00000000000000000000, 4.00000000000000000000, 4.00000000000000000000, 3.00000000000000000000, 4.00000000000000000000, 4.00000000000000000000, 4.00000000000000000000, 4.00000000000000000000, 4.00000000000000000000, 4.00000000000000000000, 4.00000000000000000000, 4.00000000000000000000, 4.00000000000000000000, 4.00000000000000000000, 1672.00000000000000000000, 1681.00000000000000000000, 0.00000000000000000000
93.00000000000000000000, 0.00000000000000000000, 4312.82040735830650000000, 5079.48705527752920000000, 4374.87168789223690000000, 5007.69218523827110000000, 4679.48706505880450000000, 4312.30758685802630000000, 4099.48707924165320000000, 4433.84604542448510000000, 4477.43578794832050000000, 4717.94860257983600000000, 4235.89733231624360000000, 4036.41015770716150000000, 4957.94859671107040000000, 4447.17937843177510000000, 401.00000000000000000000, 4.00000000000000000000, 4.00000000000000000000, 4.00000000000000000000, 4.00000000000000000000, 4.00000000000000000000, 3.00000000000000000000, 4.00000000000000000000, 4.00000000000000000000, 4.00000000000000000000, 4.00000000000000000000, 4.00000000000000000000, 4.00000000000000000000, 4.00000000000000000000, 4.00000000000000000000, 4.00000000000000000000, 4.00000000000000000000, 1672.00000000000000000000, 1682.00000000000000000000, 0.00000000000000000000
94.00000000000000000000, 0.00000000000000000000, 4309.74348435662340000000, 5072.30756827360350000000, 4370.76912388999340000000, 5007.69218523827110000000, 4674.35886005600060000000, 4313.84604835886690000000, 4103.07682274361560000000, 4422.56399441831580000000, 4463.07681394046810000000, 4703.07680807170350000000, 4221.02553780811190000000, 4031.79477320463770000000, 4936.92295619957350000000, 4437.43578892644750000000, 417.00000000000000000000, 4.00000000000000000000, 4.00000000000000000000, 4.00000000000000000000, 4.00000000000000000000, 4.00000000000000000000, 3.00000000000000000000, 4.00000000000000000000, 4.00000000000000000000, 4.00000000000000000000, 4.00000000000000000000, 4.00000000000000000000, 4.00000000000000000000, 4.00000000000000000000, 4.00000000000000000000, 4.00000000000000000000, 4.00000000000000000000, 1671.00000000000000000000, 1683.00000000000000000000, 0.00000000000000000000
95.00000000000000000000, 0.00000000000000000000, 4302.56399735269770000000, 5059.48705576659360000000, 4364.61527788662810000000, 5004.61526223658890000000, 4669.23065505319570000000, 4310.76912535718470000000, 4102.05118174305520000000, 4409.23066141102480000000, 4447.69219893205630000000, 4693.33321856637580000000, 4213.84605080418620000000, 4032.82041420519860000000, 4925.12808469312400000000, 4430.25630192252170000000, 399.00000000000000000000, 4.00000000000000000000, 4.00000000000000000000, 4.00000000000000000000, 4.00000000000000000000, 4.00000000000000000000, 3.00000000000000000000, 4.00000000000000000000, 4.00000000000000000000, 4.00000000000000000000, 4.00000000000000000000, 4.00000000000000000000, 4.00000000000000000000, 4.00000000000000000000, 4.00000000000000000000, 4.00000000000000000000, 4.00000000000000000000, 1672.00000000000000000000, 1684.00000000000000000000, 0.00000000000000000000
96.00000000000000000000, 0.00000000000000000000, 4300.51271535157590000000, 5050.25628676154610000000, 4365.12809838690920000000, 4998.97423673350390000000, 4673.33321905543930000000, 4313.33322785858670000000, 4102.05118174305520000000, 4407.17937940990300000000, 4443.58963492981270000000, 4689.23065456413220000000, 4216.92297380586840000000, 4038.97426020856350000000, 4922.05116169144180000000, 4427.17937892083960000000, 416.00000000000000000000, 4.00000000000000000000, 4.00000000000000000000, 4.00000000000000000000, 4.00000000000000000000, 4.00000000000000000000, 3.00000000000000000000, 4.00000000000000000000, 4.00000000000000000000, 4.00000000000000000000, 4.00000000000000000000, 4.00000000000000000000, 4.00000000000000000000, 4.00000000000000000000, 4.00000000000000000000, 4.00000000000000000000, 4.00000000000000000000, 1672.00000000000000000000, 1684.00000000000000000000, 0.00000000000000000000
97.00000000000000000000, 0.00000000000000000000, 4311.28194585746500000000, 5052.30756876266790000000, 4373.33322639139530000000, 5002.56398023546720000000, 4676.92296255740260000000, 4317.94861236111050000000, 4112.30759174866310000000, 4412.82040491298720000000, 4444.10245543009300000000, 4687.17937256301050000000, 4217.43579430614860000000, 4044.61528571164810000000, 4916.41013618835680000000, 4432.30758392364350000000, 401.00000000000000000000, 4.00000000000000000000, 4.00000000000000000000, 4.00000000000000000000, 4.00000000000000000000, 4.00000000000000000000, 3.00000000000000000000, 4.00000000000000000000, 4.00000000000000000000, 4.00000000000000000000, 4.00000000000000000000, 4.00000000000000000000, 4.00000000000000000000, 4.00000000000000000000, 4.00000000000000000000, 4.00000000000000000000, 4.00000000000000000000, 1672.00000000000000000000, 1684.00000000000000000000, 0.00000000000000000000
98.00000000000000000000, 0.00000000000000000000, 4315.38450985970850000000, 5049.23064576098480000000, 4378.97425189448040000000, 5013.33321074135620000000, 4665.12809105095310000000, 4313.33322785858670000000, 4124.61528375539360000000, 4418.46143041607230000000, 4447.17937843177510000000, 4690.25629556469360000000, 4216.92297380586840000000, 4047.69220871333070000000, 4912.82039268639440000000, 4443.07681442953250000000, 417.00000000000000000000, 4.00000000000000000000, 4.00000000000000000000, 4.00000000000000000000, 4.00000000000000000000, 4.00000000000000000000, 3.00000000000000000000, 4.00000000000000000000, 4.00000000000000000000, 4.00000000000000000000, 4.00000000000000000000, 4.00000000000000000000, 4.00000000000000000000, 4.00000000000000000000, 4.00000000000000000000, 4.00000000000000000000, 4.00000000000000000000, 1672.00000000000000000000, 1685.00000000000000000000, 0.00000000000000000000
99.00000000000000000000, 0.00000000000000000000, 4310.25630485690450000000, 5039.99987675593730000000, 4378.46143139419930000000, 5016.92295424331860000000, 4651.28193754338190000000, 4310.25630485690450000000, 4126.66656575651540000000, 4423.58963541887620000000, 4453.33322443514040000000, 4696.92296206833820000000, 4223.58964030951390000000, 4047.69220871333070000000, 4911.28193118555280000000, 4444.10245543009300000000, 399.00000000000000000000, 4.00000000000000000000, 4.00000000000000000000, 4.00000000000000000000, 4.00000000000000000000, 4.00000000000000000000, 3.00000000000000000000, 4.00000000000000000000, 4.00000000000000000000, 4.00000000000000000000, 4.00000000000000000000, 4.00000000000000000000, 4.00000000000000000000, 4.00000000000000000000, 4.00000000000000000000, 4.00000000000000000000, 4.00000000000000000000, 1672.00000000000000000000, 1683.00000000000000000000, 0.00000000000000000000
100.00000000000000000000, 0.00000000000000000000, 4311.28194585746500000000, 5038.97423575537690000000, 4379.99989289504080000000, 5009.23064673911270000000, 4653.84604004478390000000, 4316.92297136055000000000, 4124.61528375539360000000, 4435.38450692532570000000, 4465.12809594158990000000, 4700.51270557030150000000, 4230.25630681315940000000, 4045.12810621192880000000, 4905.12808518218750000000, 4441.02553242841080000000, 416.00000000000000000000, 4.00000000000000000000, 4.00000000000000000000, 4.00000000000000000000, 4.00000000000000000000, 4.00000000000000000000, 3.00000000000000000000, 4.00000000000000000000, 4.00000000000000000000, 4.00000000000000000000, 4.00000000000000000000, 4.00000000000000000000, 4.00000000000000000000, 4.00000000000000000000, 4.00000000000000000000, 4.00000000000000000000, 4.00000000000000000000, 1672.00000000000000000000, 1685.00000000000000000000, 0.00000000000000000000
101.00000000000000000000, 0.00000000000000000000, 4312.82040735830650000000, 5036.41013325397490000000, 4381.02553389560220000000, 5011.79474924051460000000, 4659.48706554786800000000, 4326.66656086587770000000, 4125.64092475595410000000, 4447.17937843177510000000, 4482.56399295112440000000, 4706.66655157366680000000, 4235.38451181596340000000, 4047.69220871333070000000, 4903.58962368134690000000, 4441.53835292869100000000, 401.00000000000000000000, 4.00000000000000000000, 4.00000000000000000000, 4.00000000000000000000, 4.00000000000000000000, 4.00000000000000000000, 3.00000000000000000000, 4.00000000000000000000, 4.00000000000000000000, 4.00000000000000000000, 4.00000000000000000000, 4.00000000000000000000, 4.00000000000000000000, 4.00000000000000000000, 4.00000000000000000000, 4.00000000000000000000, 4.00000000000000000000, 1673.00000000000000000000, 1684.00000000000000000000, 0.00000000000000000000
102.00000000000000000000, 0.00000000000000000000, 4307.17938185522140000000, 5026.66654374864630000000, 4375.38450839251710000000, 5018.97423624444040000000, 4656.92296304646610000000, 4327.17938136615790000000, 4116.41015575090660000000, 4442.05117342897120000000, 4488.20501845420860000000, 4715.89732057871420000000, 4242.05117831960890000000, 4054.87169571725640000000, 4912.30757218611320000000, 4443.58963492981270000000, 417.00000000000000000000, 4.00000000000000000000, 4.00000000000000000000, 4.00000000000000000000, 4.00000000000000000000, 4.00000000000000000000, 3.00000000000000000000, 4.00000000000000000000, 4.00000000000000000000, 4.00000000000000000000, 4.00000000000000000000, 4.00000000000000000000, 4.00000000000000000000, 4.00000000000000000000, 4.00000000000000000000, 4.00000000000000000000, 4.00000000000000000000, 1671.00000000000000000000, 1684.00000000000000000000, 0.00000000000000000000
103.00000000000000000000, 0.00000000000000000000, 4304.61527935381950000000, 5020.51269774528190000000, 4372.30758539083490000000, 5011.79474924051460000000, 4656.41014254618590000000, 4322.56399686363420000000, 4104.61528424445710000000, 4433.84604542448510000000, 4481.53835195056310000000, 4722.56398708235970000000, 4244.61528082101090000000, 4056.92297771837820000000, 4908.20500818387060000000, 4445.64091693093450000000, 399.00000000000000000000, 4.00000000000000000000, 4.00000000000000000000, 4.00000000000000000000, 4.00000000000000000000, 4.00000000000000000000, 3.00000000000000000000, 4.00000000000000000000, 4.00000000000000000000, 4.00000000000000000000, 4.00000000000000000000, 4.00000000000000000000, 4.00000000000000000000, 4.00000000000000000000, 4.00000000000000000000, 4.00000000000000000000, 4.00000000000000000000, 1673.00000000000000000000, 1684.00000000000000000000, 0.00000000000000000000
104.00000000000000000000, 0.00000000000000000000, 4306.66656135494120000000, 5014.87167224219680000000, 4373.84604689167550000000, 5001.02551873462560000000, 4651.79475804366210000000, 4323.07681736391440000000, 4107.17938674585910000000, 4436.41014792588700000000, 4479.48706994944220000000, 4719.99988458095780000000, 4231.28194781371990000000, 4049.74349071445250000000, 4878.46141916760640000000, 4443.58963492981270000000, 416.00000000000000000000, 4.00000000000000000000, 4.00000000000000000000, 4.00000000000000000000, 4.00000000000000000000, 4.00000000000000000000, 3.00000000000000000000, 4.00000000000000000000, 4.00000000000000000000, 4.00000000000000000000, 4.00000000000000000000, 4.00000000000000000000, 4.00000000000000000000, 4.00000000000000000000, 4.00000000000000000000, 4.00000000000000000000, 4.00000000000000000000, 1672.00000000000000000000, 1684.00000000000000000000, 0.00000000000000000000
105.00000000000000000000, 0.00000000000000000000, 4303.07681785297880000000, 5004.61526223658890000000, 4371.79476489055470000000, 4998.97423673350390000000, 4637.43578403580980000000, 4328.20502236671840000000, 4111.79477124838290000000, 4434.35886592476530000000, 4473.33322394607690000000, 4706.66655157366680000000, 4219.48707630727040000000, 4041.53836270996590000000, 4851.79475315302440000000, 4436.41014792588700000000, 401.00000000000000000000, 4.00000000000000000000, 4.00000000000000000000, 4.00000000000000000000, 4.00000000000000000000, 4.00000000000000000000, 3.00000000000000000000, 4.00000000000000000000, 4.00000000000000000000, 4.00000000000000000000, 4.00000000000000000000, 4.00000000000000000000, 4.00000000000000000000, 4.00000000000000000000, 4.00000000000000000000, 4.00000000000000000000, 4.00000000000000000000, 1672.00000000000000000000, 1685.00000000000000000000, 0.00000000000000000000
106.00000000000000000000, 0.00000000000000000000, 4295.89733084905220000000, 4996.41013423210190000000, 4370.25630338971310000000, 5008.20500573855130000000, 4627.17937403020190000000, 4326.15374036559750000000, 4107.17938674585910000000, 4423.58963541887620000000, 4460.51271143906620000000, 4698.97424406945990000000, 4223.58964030951390000000, 4036.41015770716150000000, 4842.56398414797700000000, 4432.30758392364350000000, 417.00000000000000000000, 4.00000000000000000000, 4.00000000000000000000, 4.00000000000000000000, 4.00000000000000000000, 4.00000000000000000000, 3.00000000000000000000, 4.00000000000000000000, 4.00000000000000000000, 4.00000000000000000000, 4.00000000000000000000, 4.00000000000000000000, 4.00000000000000000000, 4.00000000000000000000, 4.00000000000000000000, 4.00000000000000000000, 4.00000000000000000000, 1672.00000000000000000000, 1685.00000000000000000000, 0.00000000000000000000
107.00000000000000000000, 0.00000000000000000000, 4292.82040784737000000000, 4986.15372422649400000000, 4369.23066238915180000000, 5010.25628773967310000000, 4626.66655352992170000000, 4317.94861236111050000000, 4102.56400224333540000000, 4421.02553291747430000000, 4457.43578843738400000000, 4699.99988507002130000000, 4222.56399930895260000000, 4032.30759370491840000000, 4832.82039464264930000000, 4431.28194292308220000000, 399.00000000000000000000, 4.00000000000000000000, 4.00000000000000000000, 4.00000000000000000000, 4.00000000000000000000, 4.00000000000000000000, 3.00000000000000000000, 4.00000000000000000000, 4.00000000000000000000, 4.00000000000000000000, 4.00000000000000000000, 4.00000000000000000000, 4.00000000000000000000, 4.00000000000000000000, 4.00000000000000000000, 4.00000000000000000000, 4.00000000000000000000, 1672.00000000000000000000, 1684.00000000000000000000, 0.00000000000000000000
108.00000000000000000000, 0.00000000000000000000, 4295.38451034877200000000, 4977.94859622200690000000, 4365.64091888718940000000, 4994.87167273126120000000, 4629.23065603132360000000, 4318.46143286139070000000, 4109.23066874698090000000, 4423.58963541887620000000, 4462.05117293990770000000, 4704.61526957254500000000, 4215.38451230502690000000, 4033.33323470547930000000, 4822.56398463704040000000, 4427.69219942111980000000, 416.00000000000000000000, 4.00000000000000000000, 4.00000000000000000000, 4.00000000000000000000, 4.00000000000000000000, 4.00000000000000000000, 3.00000000000000000000, 4.00000000000000000000, 4.00000000000000000000, 4.00000000000000000000, 4.00000000000000000000, 4.00000000000000000000, 4.00000000000000000000, 4.00000000000000000000, 4.00000000000000000000, 4.00000000000000000000, 4.00000000000000000000, 1673.00000000000000000000, 1683.00000000000000000000, 0.00000000000000000000
109.00000000000000000000, 0.00000000000000000000, 4297.94861285017400000000, 4981.02551922368910000000, 4367.69220088831120000000, 4989.23064722817620000000, 4623.07681002795830000000, 4327.69220186643820000000, 4122.05118125399170000000, 4426.66655842055840000000, 4466.66655744243140000000, 4713.84603857759250000000, 4220.51271730783080000000, 4035.38451670660060000000, 4819.48706163535830000000, 4428.71784042168020000000, 401.00000000000000000000, 4.00000000000000000000, 4.00000000000000000000, 4.00000000000000000000, 4.00000000000000000000, 4.00000000000000000000, 3.00000000000000000000, 4.00000000000000000000, 4.00000000000000000000, 4.00000000000000000000, 4.00000000000000000000, 4.00000000000000000000, 4.00000000000000000000, 4.00000000000000000000, 4.00000000000000000000, 4.00000000000000000000, 4.00000000000000000000, 1673.00000000000000000000, 1682.00000000000000000000, 0.00000000000000000000
110.00000000000000000000, 0.00000000000000000000, 4303.07681785297880000000, 4986.15372422649400000000, 4374.35886739195670000000, 5007.69218523827110000000, 4618.46142552543460000000, 4329.74348386755990000000, 4126.66656575651540000000, 4438.97425042728900000000, 4472.82040344579670000000, 4722.05116658207860000000, 4232.82040931456140000000, 4040.51272170940500000000, 4814.87167713283450000000, 4437.43578892644750000000, 417.00000000000000000000, 4.00000000000000000000, 4.00000000000000000000, 4.00000000000000000000, 4.00000000000000000000, 4.00000000000000000000, 3.00000000000000000000, 4.00000000000000000000, 4.00000000000000000000, 4.00000000000000000000, 4.00000000000000000000, 4.00000000000000000000, 4.00000000000000000000, 4.00000000000000000000, 4.00000000000000000000, 4.00000000000000000000, 4.00000000000000000000, 1674.00000000000000000000, 1680.00000000000000000000, 0.00000000000000000000
111.00000000000000000000, 0.00000000000000000000, 4307.17938185522140000000, 4985.12808322593260000000, 4377.43579039363890000000, 5017.94859524387990000000, 4623.58963052823860000000, 4323.58963786419460000000, 4117.43579675146700000000, 4446.66655793149490000000, 4474.35886494663740000000, 4720.51270508123800000000, 4235.38451181596340000000, 4046.15374721248960000000, 4813.84603613227410000000, 4445.12809643065430000000, 399.00000000000000000000, 4.00000000000000000000, 4.00000000000000000000, 4.00000000000000000000, 4.00000000000000000000, 4.00000000000000000000, 3.00000000000000000000, 4.00000000000000000000, 4.00000000000000000000, 4.00000000000000000000, 4.00000000000000000000, 4.00000000000000000000, 4.00000000000000000000, 4.00000000000000000000, 4.00000000000000000000, 4.00000000000000000000, 4.00000000000000000000, 1674.00000000000000000000, 1681.00000000000000000000, 0.00000000000000000000
112.00000000000000000000, 0.00000000000000000000, 4310.76912535718470000000, 4981.02551922368910000000, 4377.94861089391910000000, 5010.25628773967310000000, 4622.56398952767810000000, 4324.10245836447580000000, 4109.23066874698090000000, 4441.02553242841080000000, 4474.35886494663740000000, 4721.53834608179840000000, 4232.82040931456140000000, 4046.66656771276980000000, 4816.41013863367610000000, 4447.17937843177510000000, 416.00000000000000000000, 4.00000000000000000000, 4.00000000000000000000, 4.00000000000000000000, 4.00000000000000000000, 4.00000000000000000000, 3.00000000000000000000, 4.00000000000000000000, 4.00000000000000000000, 4.00000000000000000000, 4.00000000000000000000, 4.00000000000000000000, 4.00000000000000000000, 4.00000000000000000000, 4.00000000000000000000, 4.00000000000000000000, 4.00000000000000000000, 1675.00000000000000000000, 1682.00000000000000000000, 0.00000000000000000000
113.00000000000000000000, 0.00000000000000000000, 4313.84604835886690000000, 4978.97423722256830000000, 4376.41014939307840000000, 5014.35885174191660000000, 4611.28193852150890000000, 4327.17938136615790000000, 4107.17938674585910000000, 4430.76912242280200000000, 4475.89732644747890000000, 4727.17937158488350000000, 4236.41015281652380000000, 4043.58964471108720000000, 4807.17936962862860000000, 4442.56399392925140000000, 401.00000000000000000000, 4.00000000000000000000, 4.00000000000000000000, 4.00000000000000000000, 4.00000000000000000000, 4.00000000000000000000, 3.00000000000000000000, 4.00000000000000000000, 4.00000000000000000000, 4.00000000000000000000, 4.00000000000000000000, 4.00000000000000000000, 4.00000000000000000000, 4.00000000000000000000, 4.00000000000000000000, 4.00000000000000000000, 4.00000000000000000000, 1674.00000000000000000000, 1683.00000000000000000000, 0.00000000000000000000
114.00000000000000000000, 0.00000000000000000000, 4305.64092035438080000000, 4973.33321171948320000000, 4370.25630338971310000000, 5017.94859524387990000000, 4602.56399001674160000000, 4321.02553536279270000000, 4101.02554074249380000000, 4421.53835341775450000000, 4464.10245494102950000000, 4717.94860257983600000000, 4229.74348631287920000000, 4036.92297820744220000000, 4783.58962661572880000000, 4432.82040442392370000000, 417.00000000000000000000, 4.00000000000000000000, 4.00000000000000000000, 4.00000000000000000000, 4.00000000000000000000, 4.00000000000000000000, 3.00000000000000000000, 4.00000000000000000000, 4.00000000000000000000, 4.00000000000000000000, 4.00000000000000000000, 4.00000000000000000000, 4.00000000000000000000, 4.00000000000000000000, 4.00000000000000000000, 4.00000000000000000000, 4.00000000000000000000, 1674.00000000000000000000, 1684.00000000000000000000, 0.00000000000000000000
115.00000000000000000000, 0.00000000000000000000, 4300.51271535157590000000, 4962.05116071331390000000, 4369.23066238915180000000, 5011.79474924051460000000, 4594.87168251253570000000, 4316.41015086026890000000, 4098.97425874137210000000, 4418.46143041607230000000, 4454.35886543570180000000, 4705.64091057310540000000, 4218.97425580699020000000, 4032.82041420519860000000, 4771.28193460899910000000, 4428.71784042168020000000, 399.00000000000000000000, 4.00000000000000000000, 4.00000000000000000000, 4.00000000000000000000, 4.00000000000000000000, 4.00000000000000000000, 3.00000000000000000000, 4.00000000000000000000, 4.00000000000000000000, 4.00000000000000000000, 4.00000000000000000000, 4.00000000000000000000, 4.00000000000000000000, 4.00000000000000000000, 4.00000000000000000000, 4.00000000000000000000, 4.00000000000000000000, 1673.00000000000000000000, 1685.00000000000000000000, 0.00000000000000000000
116.00000000000000000000, 0.00000000000000000000, 4308.71784335606300000000, 4955.89731470994960000000, 4370.25630338971310000000, 5006.66654423771070000000, 4588.20501600889020000000, 4319.48707386195200000000, 4103.58964324389580000000, 4419.48707141663270000000, 4459.48707043850570000000, 4704.61526957254500000000, 4217.43579430614860000000, 4031.79477320463770000000, 4770.76911410871890000000, 4431.28194292308220000000, 416.00000000000000000000, 4.00000000000000000000, 4.00000000000000000000, 4.00000000000000000000, 4.00000000000000000000, 4.00000000000000000000, 3.00000000000000000000, 4.00000000000000000000, 4.00000000000000000000, 4.00000000000000000000, 4.00000000000000000000, 4.00000000000000000000, 4.00000000000000000000, 4.00000000000000000000, 4.00000000000000000000, 4.00000000000000000000, 4.00000000000000000000, 1673.00000000000000000000, 1688.00000000000000000000, 0.00000000000000000000
117.00000000000000000000, 0.00000000000000000000, 4311.79476635774520000000, 4951.79475070770600000000, 4370.25630338971310000000, 5007.17936473799090000000, 4586.66655450804860000000, 4319.99989436223220000000, 4104.10246374417690000000, 4418.46143041607230000000, 4459.48707043850570000000, 4699.99988507002130000000, 4215.89733280530710000000, 4027.17938870211400000000, 4757.94860160170810000000, 4431.28194292308220000000, 401.00000000000000000000, 4.00000000000000000000, 4.00000000000000000000, 4.00000000000000000000, 4.00000000000000000000, 4.00000000000000000000, 3.00000000000000000000, 4.00000000000000000000, 4.00000000000000000000, 4.00000000000000000000, 4.00000000000000000000, 4.00000000000000000000, 4.00000000000000000000, 4.00000000000000000000, 4.00000000000000000000, 4.00000000000000000000, 4.00000000000000000000, 1673.00000000000000000000, 1687.00000000000000000000, 0.00000000000000000000
118.00000000000000000000, 0.00000000000000000000, 4305.64092035438080000000, 4942.56398170265860000000, 4370.76912388999340000000, 5010.76910823995330000000, 4575.38450350187940000000, 4316.41015086026890000000, 4104.61528424445710000000, 4412.82040491298720000000, 4449.23066043289690000000, 4688.20501356357180000000, 4212.30758930334470000000, 4023.07682469987090000000, 4741.53834559273490000000, 4428.71784042168020000000, 417.00000000000000000000, 4.00000000000000000000, 4.00000000000000000000, 4.00000000000000000000, 4.00000000000000000000, 4.00000000000000000000, 3.00000000000000000000, 4.00000000000000000000, 4.00000000000000000000, 4.00000000000000000000, 4.00000000000000000000, 4.00000000000000000000, 4.00000000000000000000, 4.00000000000000000000, 4.00000000000000000000, 4.00000000000000000000, 4.00000000000000000000, 1672.00000000000000000000, 1686.00000000000000000000, 0.00000000000000000000
119.00000000000000000000, 0.00000000000000000000, 4301.53835635213730000000, 4932.82039219733000000000, 4370.25630338971310000000, 5004.10244173630870000000, 4567.17937549739330000000, 4316.92297136055000000000, 4106.15374574529870000000, 4410.25630241158520000000, 4442.56399392925140000000, 4678.97424455852430000000, 4212.82040980362490000000, 4029.23067070323580000000, 4737.94860209077160000000, 4428.71784042168020000000, 399.00000000000000000000, 4.00000000000000000000, 4.00000000000000000000, 4.00000000000000000000, 4.00000000000000000000, 4.00000000000000000000, 3.00000000000000000000, 4.00000000000000000000, 4.00000000000000000000, 4.00000000000000000000, 4.00000000000000000000, 4.00000000000000000000, 4.00000000000000000000, 4.00000000000000000000, 4.00000000000000000000, 4.00000000000000000000, 4.00000000000000000000, 1670.00000000000000000000, 1685.00000000000000000000, 0.00000000000000000000
120.00000000000000000000, 0.00000000000000000000, 4302.56399735269770000000, 4928.20500769480620000000, 4370.76912388999340000000, 5001.53833923490580000000, 4570.25629849907550000000, 4319.48707386195200000000, 4101.53836124277500000000, 4416.92296891523070000000, 4448.71783993261670000000, 4683.58962906104810000000, 4217.43579430614860000000, 4038.46143970828330000000, 4738.46142259105270000000, 4432.30758392364350000000, 416.00000000000000000000, 4.00000000000000000000, 4.00000000000000000000, 4.00000000000000000000, 4.00000000000000000000, 4.00000000000000000000, 3.00000000000000000000, 4.00000000000000000000, 4.00000000000000000000, 4.00000000000000000000, 4.00000000000000000000, 4.00000000000000000000, 4.00000000000000000000, 4.00000000000000000000, 4.00000000000000000000, 4.00000000000000000000, 4.00000000000000000000, 1671.00000000000000000000, 1686.00000000000000000000, 0.00000000000000000000
121.00000000000000000000, 0.00000000000000000000, 4304.61527935381950000000, 4921.53834119116160000000, 4373.33322639139530000000, 5015.89731324275820000000, 4567.69219599767350000000, 4318.46143286139070000000, 4101.02554074249380000000, 4434.35886592476530000000, 4464.10245494102950000000, 4695.89732106777770000000, 4222.56399930895260000000, 4041.53836270996590000000, 4734.35885858880920000000, 4439.99989142784940000000, 401.00000000000000000000, 4.00000000000000000000, 4.00000000000000000000, 4.00000000000000000000, 4.00000000000000000000, 4.00000000000000000000, 3.00000000000000000000, 4.00000000000000000000, 4.00000000000000000000, 4.00000000000000000000, 4.00000000000000000000, 4.00000000000000000000, 4.00000000000000000000, 4.00000000000000000000, 4.00000000000000000000, 4.00000000000000000000, 4.00000000000000000000, 1671.00000000000000000000, 1684.00000000000000000000, 0.00000000000000000000
122.00000000000000000000, 0.00000000000000000000, 4308.71784335606300000000, 4920.51270019060030000000, 4373.84604689167550000000, 5018.97423624444040000000, 4566.15373449683190000000, 4319.99989436223220000000, 4108.71784824670070000000, 4450.25630143345820000000, 4476.92296744803930000000, 4700.51270557030150000000, 4231.79476831400010000000, 4043.58964471108720000000, 4732.82039708796760000000, 4446.15373743121470000000, 417.00000000000000000000, 4.00000000000000000000, 4.00000000000000000000, 4.00000000000000000000, 4.00000000000000000000, 4.00000000000000000000, 3.00000000000000000000, 4.00000000000000000000, 4.00000000000000000000, 4.00000000000000000000, 4.00000000000000000000, 4.00000000000000000000, 4.00000000000000000000, 4.00000000000000000000, 4.00000000000000000000, 4.00000000000000000000, 4.00000000000000000000, 1670.00000000000000000000, 1685.00000000000000000000, 0.00000000000000000000
123.00000000000000000000, 0.00000000000000000000, 4309.23066385634320000000, 4923.07680269200230000000, 4372.30758539083490000000, 5004.10244173630870000000, 4571.79475999991700000000, 4326.66656086587770000000, 4103.07682274361560000000, 4446.66655793149490000000, 4476.41014694775910000000, 4699.99988507002130000000, 4233.84605031512180000000, 4045.64092671220900000000, 4732.82039708796760000000, 4441.53835292869100000000, 399.00000000000000000000, 4.00000000000000000000, 4.00000000000000000000, 4.00000000000000000000, 4.00000000000000000000, 4.00000000000000000000, 3.00000000000000000000, 4.00000000000000000000, 4.00000000000000000000, 4.00000000000000000000, 4.00000000000000000000, 4.00000000000000000000, 4.00000000000000000000, 4.00000000000000000000, 4.00000000000000000000, 4.00000000000000000000, 4.00000000000000000000, 1671.00000000000000000000, 1684.00000000000000000000, 0.00000000000000000000
124.00000000000000000000, 0.00000000000000000000, 4303.58963835325900000000, 4917.43577718891810000000, 4367.69220088831120000000, 5006.15372373742960000000, 4571.28193949963680000000, 4328.20502236671840000000, 4089.74348973632500000000, 4426.66655842055840000000, 4467.69219844299190000000, 4703.07680807170350000000, 4221.02553780811190000000, 4037.43579870772240000000, 4718.97424358039640000000, 4429.74348142224150000000, 416.00000000000000000000, 4.00000000000000000000, 4.00000000000000000000, 4.00000000000000000000, 4.00000000000000000000, 4.00000000000000000000, 3.00000000000000000000, 4.00000000000000000000, 4.00000000000000000000, 4.00000000000000000000, 4.00000000000000000000, 4.00000000000000000000, 4.00000000000000000000, 4.00000000000000000000, 4.00000000000000000000, 4.00000000000000000000, 4.00000000000000000000, 1670.00000000000000000000, 1683.00000000000000000000, 0.00000000000000000000
125.00000000000000000000, 0.00000000000000000000, 4298.97425385073530000000, 4910.76911068527260000000, 4361.53835488494590000000, 5023.07680024668390000000, 4567.69219599767350000000, 4325.64091986531640000000, 4086.66656673464240000000, 4410.76912291186640000000, 4459.99989093878590000000, 4701.02552607058170000000, 4212.82040980362490000000, 4025.64092720127290000000, 4703.58962857198370000000, 4424.10245591915650000000, 401.00000000000000000000, 4.00000000000000000000, 4.00000000000000000000, 4.00000000000000000000, 4.00000000000000000000, 4.00000000000000000000, 3.00000000000000000000, 4.00000000000000000000, 4.00000000000000000000, 4.00000000000000000000, 4.00000000000000000000, 4.00000000000000000000, 4.00000000000000000000, 4.00000000000000000000, 4.00000000000000000000, 4.00000000000000000000, 4.00000000000000000000, 1671.00000000000000000000, 1682.00000000000000000000, 0.00000000000000000000
126.00000000000000000000, 0.00000000000000000000, 4297.43579234989370000000, 4902.05116218050530000000, 4361.02553438466570000000, 5013.84603124163640000000, 4566.66655499711310000000, 4325.64091986531640000000, 4092.82041273800720000000, 4410.76912291186640000000, 4459.99989093878590000000, 4693.33321856637580000000, 4215.89733280530710000000, 4023.58964520015120000000, 4699.48706456974110000000, 4426.66655842055840000000, 417.00000000000000000000, 4.00000000000000000000, 4.00000000000000000000, 4.00000000000000000000, 4.00000000000000000000, 4.00000000000000000000, 3.00000000000000000000, 4.00000000000000000000, 4.00000000000000000000, 4.00000000000000000000, 4.00000000000000000000, 4.00000000000000000000, 4.00000000000000000000, 4.00000000000000000000, 4.00000000000000000000, 4.00000000000000000000, 4.00000000000000000000, 1670.00000000000000000000, 1681.00000000000000000000, 0.00000000000000000000
127.00000000000000000000, 0.00000000000000000000, 4295.38451034877200000000, 4893.33321367573810000000, 4365.12809838690920000000, 4997.43577523266320000000, 4561.53834999430820000000, 4328.20502236671840000000, 4099.48707924165320000000, 4412.30758441270700000000, 4463.07681394046810000000, 4692.82039806609550000000, 4217.43579430614860000000, 4030.76913220407690000000, 4698.46142356917970000000, 4427.17937892083960000000, 399.00000000000000000000, 4.00000000000000000000, 4.00000000000000000000, 4.00000000000000000000, 4.00000000000000000000, 4.00000000000000000000, 3.00000000000000000000, 4.00000000000000000000, 4.00000000000000000000, 4.00000000000000000000, 4.00000000000000000000, 4.00000000000000000000, 4.00000000000000000000, 4.00000000000000000000, 4.00000000000000000000, 4.00000000000000000000, 4.00000000000000000000, 1671.00000000000000000000, 1684.00000000000000000000, 0.00000000000000000000
128.00000000000000000000, 0.00000000000000000000, 4295.38451034877200000000, 4889.74347017377570000000, 4365.12809838690920000000, 5006.66654423771070000000, 4552.30758098926070000000, 4328.20502236671840000000, 4105.64092524501760000000, 4409.23066141102480000000, 4461.02553193934640000000, 4696.92296206833820000000, 4212.82040980362490000000, 4034.87169620632040000000, 4687.69219306329070000000, 4421.53835341775450000000, 416.00000000000000000000, 4.00000000000000000000, 4.00000000000000000000, 4.00000000000000000000, 4.00000000000000000000, 4.00000000000000000000, 3.00000000000000000000, 4.00000000000000000000, 4.00000000000000000000, 4.00000000000000000000, 4.00000000000000000000, 4.00000000000000000000, 4.00000000000000000000, 4.00000000000000000000, 4.00000000000000000000, 4.00000000000000000000, 4.00000000000000000000, 1672.00000000000000000000, 1683.00000000000000000000, 0.00000000000000000000
