title:1                                                                               , recorded:29.07.19 12.46.58, sampling:128, subject:1                                                                               , labels:COUNTER INTERPOLATED AF3 F7 F3 FC5 T7 P7 O1 O2 P8 T8 FC6 F4 F8 AF4 RAW_CQ CQ_AF3 CQ_F7 CQ_F3 CQ_FC5 CQ_T7 CQ_P7 CQ_O1 CQ_O2 CQ_P8 CQ_T8 CQ_FC6 CQ_F4 CQ_F8 CQ_AF4 CQ_CMS CQ_DRL GYROX GYROY MARKER, chan:36, units:emotiv
49.00000000000000000000, 0.00000000000000000000, 4267.69220333362950000000, 4429.23066092196130000000, 4362.05117538522610000000, 5009.23064673911270000000, 4238.46143481764560000000, 4311.79476635774520000000, 3974.35887717323110000000, 4388.71784139980810000000, 4474.87168544691850000000, 4815.38449763311470000000, 4215.89733280530710000000, 4053.84605471669560000000, 4079.99990023099690000000, 4445.64091693093450000000, 0.00000000000000000000, 4.00000000000000000000, 4.00000000000000000000, 4.00000000000000000000, 4.00000000000000000000, 4.00000000000000000000, 4.00000000000000000000, 4.00000000000000000000, 4.00000000000000000000, 4.00000000000000000000, 4.00000000000000000000, 4.00000000000000000000, 4.00000000000000000000, 4.00000000000000000000, 4.00000000000000000000, 4.00000000000000000000, 4.00000000000000000000, 1667.00000000000000000000, 1684.00000000000000000000, 0.00000000000000000000
50.00000000000000000000, 0.00000000000000000000, 4266.66656233306910000000, 4427.17937892083960000000, 4363.07681638578740000000, 5007.17936473799090000000, 4240.51271681876730000000, 4308.71784335606300000000, 3970.25631317098760000000, 4385.12809789784480000000, 4475.38450594719870000000, 4814.35885663255430000000, 4213.33323030390510000000, 4051.79477271557430000000, 4075.89733622875380000000, 4443.58963492981270000000, 0.00000000000000000000, 4.00000000000000000000, 4.00000000000000000000, 4.00000000000000000000, 4.00000000000000000000, 4.00000000000000000000, 4.00000000000000000000, 4.00000000000000000000, 4.00000000000000000000, 4.00000000000000000000, 4.00000000000000000000, 4.00000000000000000000, 4.00000000000000000000, 4.00000000000000000000, 4.00000000000000000000, 4.00000000000000000000, 4.00000000000000000000, 1668.00000000000000000000, 1685.00000000000000000000, 0.00000000000000000000
51.00000000000000000000, 0.00000000000000000000, 4262.56399833082560000000, 4424.61527641943760000000, 4355.38450888158060000000, 5001.02551873462560000000, 4249.23066532353460000000, 4311.79476635774520000000, 3966.15374916874450000000, 4383.07681589672300000000, 4476.92296744803930000000, 4815.89731813339490000000, 4211.79476880306450000000, 4052.30759321585450000000, 4074.87169522819290000000, 4438.97425042728900000000, 0.00000000000000000000, 4.00000000000000000000, 4.00000000000000000000, 4.00000000000000000000, 4.00000000000000000000, 4.00000000000000000000, 4.00000000000000000000, 4.00000000000000000000, 4.00000000000000000000, 4.00000000000000000000, 4.00000000000000000000, 4.00000000000000000000, 4.00000000000000000000, 4.00000000000000000000, 4.00000000000000000000, 4.00000000000000000000, 4.00000000000000000000, 1668.00000000000000000000, 1683.00000000000000000000, 0.00000000000000000000
52.00000000000000000000, 0.00000000000000000000, 4251.79476782493660000000, 4414.87168691410900000000, 4340.51271437344890000000, 4993.84603173069990000000, 4246.15374232185240000000, 4311.28194585746500000000, 3957.94862116425790000000, 4379.99989289504080000000, 4474.35886494663740000000, 4814.87167713283450000000, 4208.71784580138140000000, 4046.66656771276980000000, 4074.87169522819290000000, 4431.79476342336330000000, 0.00000000000000000000, 4.00000000000000000000, 4.00000000000000000000, 4.00000000000000000000, 4.00000000000000000000, 4.00000000000000000000, 4.00000000000000000000, 4.00000000000000000000, 4.00000000000000000000, 4.00000000000000000000, 4.00000000000000000000, 4.00000000000000000000, 4.00000000000000000000, 4.00000000000000000000, 4.00000000000000000000, 4.00000000000000000000, 4.00000000000000000000, 1669.00000000000000000000, 1684.00000000000000000000, 0.00000000000000000000
53.00000000000000000000, 0.00000000000000000000, 4245.12810132129110000000, 4413.33322541326830000000, 4334.87168887036390000000, 4989.74346772845640000000, 4235.89733231624360000000, 4307.17938185522140000000, 3956.92298016369700000000, 4379.48707239476060000000, 4477.43578794832050000000, 4815.89731813339490000000, 4203.07682029829720000000, 4038.46143970828330000000, 4076.92297722931470000000, 4430.76912242280200000000, 0.00000000000000000000, 4.00000000000000000000, 4.00000000000000000000, 4.00000000000000000000, 4.00000000000000000000, 4.00000000000000000000, 4.00000000000000000000, 4.00000000000000000000, 4.00000000000000000000, 4.00000000000000000000, 4.00000000000000000000, 4.00000000000000000000, 4.00000000000000000000, 4.00000000000000000000, 4.00000000000000000000, 4.00000000000000000000, 4.00000000000000000000, 1669.00000000000000000000, 1684.00000000000000000000, 0.00000000000000000000
54.00000000000000000000, 0.00000000000000000000, 4247.17938332241280000000, 4419.99989191691380000000, 4337.43579137176680000000, 4991.28192922929790000000, 4232.82040931456140000000, 4309.23066385634320000000, 3961.53836466622080000000, 4382.05117489616260000000, 4476.41014694775910000000, 4817.94860013451670000000, 4202.56399979801700000000, 4036.92297820744220000000, 4074.35887472791230000000, 4432.82040442392370000000, 0.00000000000000000000, 4.00000000000000000000, 4.00000000000000000000, 4.00000000000000000000, 4.00000000000000000000, 4.00000000000000000000, 4.00000000000000000000, 4.00000000000000000000, 4.00000000000000000000, 4.00000000000000000000, 4.00000000000000000000, 4.00000000000000000000, 4.00000000000000000000, 4.00000000000000000000, 4.00000000000000000000, 4.00000000000000000000, 4.00000000000000000000, 1668.00000000000000000000, 1684.00000000000000000000, 0.00000000000000000000
55.00000000000000000000, 0.00000000000000000000, 4248.20502432297420000000, 4414.35886641382880000000, 4338.46143237232720000000, 4993.84603173069990000000, 4235.89733231624360000000, 4311.28194585746500000000, 3960.51272366565990000000, 4381.02553389560220000000, 4463.58963444074930000000, 4812.30757463143250000000, 4203.07682029829720000000, 4036.92297820744220000000, 4065.64092622314550000000, 4426.15373792027820000000, 0.00000000000000000000, 4.00000000000000000000, 4.00000000000000000000, 4.00000000000000000000, 4.00000000000000000000, 4.00000000000000000000, 4.00000000000000000000, 4.00000000000000000000, 4.00000000000000000000, 4.00000000000000000000, 4.00000000000000000000, 4.00000000000000000000, 4.00000000000000000000, 4.00000000000000000000, 4.00000000000000000000, 4.00000000000000000000, 4.00000000000000000000, 1669.00000000000000000000, 1683.00000000000000000000, 0.00000000000000000000
56.00000000000000000000, 0.00000000000000000000, 4248.71784482325440000000, 4410.25630241158520000000, 4338.46143237232720000000, 4997.43577523266320000000, 4243.07681932016930000000, 4308.71784335606300000000, 3957.43580066397730000000, 4380.51271339532100000000, 4465.12809594158990000000, 4805.64090812778700000000, 4197.94861529549330000000, 4029.74349120351600000000, 4059.48708021978020000000, 4417.43578941551100000000, 0.00000000000000000000, 4.00000000000000000000, 4.00000000000000000000, 4.00000000000000000000, 4.00000000000000000000, 4.00000000000000000000, 4.00000000000000000000, 4.00000000000000000000, 4.00000000000000000000, 4.00000000000000000000, 4.00000000000000000000, 4.00000000000000000000, 4.00000000000000000000, 4.00000000000000000000, 4.00000000000000000000, 4.00000000000000000000, 4.00000000000000000000, 1669.00000000000000000000, 1684.00000000000000000000, 0.00000000000000000000
57.00000000000000000000, 0.00000000000000000000, 4252.30758832521680000000, 4424.61527641943760000000, 4341.53835537400940000000, 5004.10244173630870000000, 4249.23066532353460000000, 4309.74348435662340000000, 3961.02554416594010000000, 4383.58963639700410000000, 4478.46142894888090000000, 4809.23065162974940000000, 4199.99989729661500000000, 4026.15374770155310000000, 4061.53836222090190000000, 4415.38450741439010000000, 0.00000000000000000000, 4.00000000000000000000, 4.00000000000000000000, 4.00000000000000000000, 4.00000000000000000000, 4.00000000000000000000, 4.00000000000000000000, 4.00000000000000000000, 4.00000000000000000000, 4.00000000000000000000, 4.00000000000000000000, 4.00000000000000000000, 4.00000000000000000000, 4.00000000000000000000, 4.00000000000000000000, 4.00000000000000000000, 4.00000000000000000000, 1670.00000000000000000000, 1684.00000000000000000000, 0.00000000000000000000
58.00000000000000000000, 0.00000000000000000000, 4251.79476782493660000000, 4430.25630192252170000000, 4342.05117587429050000000, 5002.56398023546720000000, 4250.76912682437610000000, 4318.46143286139070000000, 3965.64092866846390000000, 4385.64091839812590000000, 4479.99989044972240000000, 4813.33321563199300000000, 4202.05117929773590000000, 4031.79477320463770000000, 4069.23066972510830000000, 4413.33322541326830000000, 0.00000000000000000000, 4.00000000000000000000, 4.00000000000000000000, 4.00000000000000000000, 4.00000000000000000000, 4.00000000000000000000, 4.00000000000000000000, 4.00000000000000000000, 4.00000000000000000000, 4.00000000000000000000, 4.00000000000000000000, 4.00000000000000000000, 4.00000000000000000000, 4.00000000000000000000, 4.00000000000000000000, 4.00000000000000000000, 4.00000000000000000000, 1668.00000000000000000000, 1684.00000000000000000000, 0.00000000000000000000
59.00000000000000000000, 0.00000000000000000000, 4246.15374232185240000000, 4421.02553291747430000000, 4338.97425287260740000000, 4992.30757022985840000000, 4245.64092182157130000000, 4322.56399686363420000000, 3966.66656966902470000000, 4389.23066190008830000000, 4473.84604444635720000000, 4813.84603613227410000000, 4198.46143579577350000000, 4034.35887570603970000000, 4072.82041322707120000000, 4410.25630241158520000000, 0.00000000000000000000, 4.00000000000000000000, 4.00000000000000000000, 4.00000000000000000000, 4.00000000000000000000, 4.00000000000000000000, 4.00000000000000000000, 4.00000000000000000000, 4.00000000000000000000, 4.00000000000000000000, 4.00000000000000000000, 4.00000000000000000000, 4.00000000000000000000, 4.00000000000000000000, 4.00000000000000000000, 4.00000000000000000000, 4.00000000000000000000, 1670.00000000000000000000, 1685.00000000000000000000, 0.00000000000000000000
60.00000000000000000000, 0.00000000000000000000, 4254.87169082661880000000, 4421.53835341775450000000, 4344.10245787541130000000, 4994.35885223098010000000, 4241.02553731904750000000, 4317.94861236111050000000, 3968.71785167014650000000, 4393.33322590233180000000, 4473.84604444635720000000, 4819.48706163535830000000, 4207.17938430054070000000, 4036.41015770716150000000, 4076.41015672903400000000, 4417.94860991579210000000, 0.00000000000000000000, 4.00000000000000000000, 4.00000000000000000000, 4.00000000000000000000, 4.00000000000000000000, 4.00000000000000000000, 4.00000000000000000000, 4.00000000000000000000, 4.00000000000000000000, 4.00000000000000000000, 4.00000000000000000000, 4.00000000000000000000, 4.00000000000000000000, 4.00000000000000000000, 4.00000000000000000000, 4.00000000000000000000, 4.00000000000000000000, 1669.00000000000000000000, 1684.00000000000000000000, 0.00000000000000000000
61.00000000000000000000, 0.00000000000000000000, 4266.15374183278800000000, 4427.69219942111980000000, 4351.28194487933800000000, 5003.07680073574740000000, 4237.94861431736540000000, 4318.46143286139070000000, 3971.79477467182910000000, 4390.25630290064960000000, 4476.41014694775910000000, 4823.07680513732160000000, 4217.43579430614860000000, 4043.58964471108720000000, 4081.53836173183840000000, 4430.25630192252170000000, 0.00000000000000000000, 4.00000000000000000000, 4.00000000000000000000, 4.00000000000000000000, 4.00000000000000000000, 4.00000000000000000000, 4.00000000000000000000, 4.00000000000000000000, 4.00000000000000000000, 4.00000000000000000000, 4.00000000000000000000, 4.00000000000000000000, 4.00000000000000000000, 4.00000000000000000000, 4.00000000000000000000, 4.00000000000000000000, 4.00000000000000000000, 1669.00000000000000000000, 1685.00000000000000000000, 0.00000000000000000000
62.00000000000000000000, 0.00000000000000000000, 4259.99989582942360000000, 4419.99989191691380000000, 4348.20502187765490000000, 4999.48705723378500000000, 4235.89733231624360000000, 4321.53835586307380000000, 3970.25631317098760000000, 4385.64091839812590000000, 4475.38450594719870000000, 4815.38449763311470000000, 4209.23066630166250000000, 4043.58964471108720000000, 4078.46143873015580000000, 4427.17937892083960000000, 0.00000000000000000000, 4.00000000000000000000, 4.00000000000000000000, 4.00000000000000000000, 4.00000000000000000000, 4.00000000000000000000, 4.00000000000000000000, 4.00000000000000000000, 4.00000000000000000000, 4.00000000000000000000, 4.00000000000000000000, 4.00000000000000000000, 4.00000000000000000000, 4.00000000000000000000, 4.00000000000000000000, 4.00000000000000000000, 4.00000000000000000000, 1670.00000000000000000000, 1683.00000000000000000000, 0.00000000000000000000
63.00000000000000000000, 0.00000000000000000000, 4248.20502432297420000000, 4413.33322541326830000000, 4343.58963737513110000000, 4994.35885223098010000000, 4242.56399881988910000000, 4317.94861236111050000000, 3966.66656966902470000000, 4386.15373889840610000000, 4474.35886494663740000000, 4809.23065162974940000000, 4201.02553829717540000000, 4039.48708070884410000000, 4072.82041322707120000000, 4417.43578941551100000000, 0.00000000000000000000, 4.00000000000000000000, 4.00000000000000000000, 4.00000000000000000000, 4.00000000000000000000, 4.00000000000000000000, 4.00000000000000000000, 4.00000000000000000000, 4.00000000000000000000, 4.00000000000000000000, 4.00000000000000000000, 4.00000000000000000000, 4.00000000000000000000, 4.00000000000000000000, 4.00000000000000000000, 4.00000000000000000000, 4.00000000000000000000, 1669.00000000000000000000, 1684.00000000000000000000, 0.00000000000000000000
64.00000000000000000000, 0.00000000000000000000, 4248.20502432297420000000, 4420.51271241719410000000, 4348.20502187765490000000, 4999.48705723378500000000, 4248.20502432297420000000, 4311.28194585746500000000, 3970.25631317098760000000, 4387.69220039924680000000, 4473.33322394607690000000, 4812.82039513171280000000, 4204.10246129885760000000, 4043.07682421080700000000, 4073.84605422763210000000, 4421.02553291747430000000, 457.00000000000000000000, 4.00000000000000000000, 4.00000000000000000000, 4.00000000000000000000, 4.00000000000000000000, 4.00000000000000000000, 4.00000000000000000000, 4.00000000000000000000, 4.00000000000000000000, 4.00000000000000000000, 4.00000000000000000000, 4.00000000000000000000, 4.00000000000000000000, 4.00000000000000000000, 4.00000000000000000000, 4.00000000000000000000, 4.00000000000000000000, 1670.00000000000000000000, 1684.00000000000000000000, 0.00000000000000000000
65.00000000000000000000, 0.00000000000000000000, 4255.38451132689990000000, 4421.02553291747430000000, 4352.82040638017860000000, 4999.48705723378500000000, 4241.53835781932870000000, 4306.15374085466100000000, 3972.30759517210940000000, 4387.17937989896650000000, 4472.82040344579670000000, 4813.84603613227410000000, 4203.07682029829720000000, 4046.15374721248960000000, 4076.92297722931470000000, 4428.20501992140000000000, 440.00000000000000000000, 4.00000000000000000000, 4.00000000000000000000, 4.00000000000000000000, 4.00000000000000000000, 4.00000000000000000000, 4.00000000000000000000, 4.00000000000000000000, 4.00000000000000000000, 4.00000000000000000000, 4.00000000000000000000, 4.00000000000000000000, 4.00000000000000000000, 4.00000000000000000000, 4.00000000000000000000, 4.00000000000000000000, 4.00000000000000000000, 1669.00000000000000000000, 1683.00000000000000000000, 0.00000000000000000000
66.00000000000000000000, 0.00000000000000000000, 4259.48707532914250000000, 4416.41014841495050000000, 4350.25630387877660000000, 4993.33321123041970000000, 4232.30758881428120000000, 4301.53835635213730000000, 3962.56400566678170000000, 4384.10245689728440000000, 4472.82040344579670000000, 4813.33321563199300000000, 4206.66656380025960000000, 4043.07682421080700000000, 4076.41015672903400000000, 4428.20501992140000000000, 416.00000000000000000000, 4.00000000000000000000, 4.00000000000000000000, 4.00000000000000000000, 4.00000000000000000000, 4.00000000000000000000, 4.00000000000000000000, 4.00000000000000000000, 4.00000000000000000000, 4.00000000000000000000, 4.00000000000000000000, 4.00000000000000000000, 4.00000000000000000000, 4.00000000000000000000, 4.00000000000000000000, 4.00000000000000000000, 4.00000000000000000000, 1669.00000000000000000000, 1683.00000000000000000000, 0.00000000000000000000
67.00000000000000000000, 0.00000000000000000000, 4256.41015232746030000000, 4418.97425091635250000000, 4348.20502187765490000000, 4997.94859573294340000000, 4234.35887081540300000000, 4300.51271535157590000000, 3956.92298016369700000000, 4380.51271339532100000000, 4470.25630094439480000000, 4815.89731813339490000000, 4216.92297380586840000000, 4043.07682421080700000000, 4077.43579772959490000000, 4428.20501992140000000000, 451.00000000000000000000, 4.00000000000000000000, 4.00000000000000000000, 4.00000000000000000000, 4.00000000000000000000, 4.00000000000000000000, 4.00000000000000000000, 4.00000000000000000000, 4.00000000000000000000, 4.00000000000000000000, 4.00000000000000000000, 4.00000000000000000000, 4.00000000000000000000, 4.00000000000000000000, 4.00000000000000000000, 4.00000000000000000000, 4.00000000000000000000, 1669.00000000000000000000, 1683.00000000000000000000, 0.00000000000000000000
68.00000000000000000000, 0.00000000000000000000, 4248.20502432297420000000, 4418.46143041607230000000, 4343.58963737513110000000, 4998.46141623322360000000, 4235.38451181596340000000, 4306.66656135494120000000, 3958.97426216481880000000, 4379.48707239476060000000, 4461.53835243962750000000, 4812.30757463143250000000, 4208.71784580138140000000, 4043.58964471108720000000, 4074.87169522819290000000, 4422.56399441831580000000, 469.00000000000000000000, 4.00000000000000000000, 4.00000000000000000000, 4.00000000000000000000, 4.00000000000000000000, 4.00000000000000000000, 4.00000000000000000000, 4.00000000000000000000, 4.00000000000000000000, 4.00000000000000000000, 4.00000000000000000000, 4.00000000000000000000, 4.00000000000000000000, 4.00000000000000000000, 4.00000000000000000000, 4.00000000000000000000, 4.00000000000000000000, 1670.00000000000000000000, 1683.00000000000000000000, 0.00000000000000000000
69.00000000000000000000, 0.00000000000000000000, 4247.69220382269300000000, 4413.33322541326830000000, 4337.94861187204700000000, 4986.66654472677420000000, 4232.30758881428120000000, 4307.17938185522140000000, 3957.94862116425790000000, 4378.97425189448040000000, 4456.92296793710370000000, 4807.69219012890880000000, 4197.43579479521210000000, 4042.05118321024610000000, 4069.23066972510830000000, 4412.82040491298720000000, 445.00000000000000000000, 4.00000000000000000000, 4.00000000000000000000, 4.00000000000000000000, 4.00000000000000000000, 4.00000000000000000000, 4.00000000000000000000, 4.00000000000000000000, 4.00000000000000000000, 4.00000000000000000000, 4.00000000000000000000, 4.00000000000000000000, 4.00000000000000000000, 4.00000000000000000000, 4.00000000000000000000, 4.00000000000000000000, 4.00000000000000000000, 1669.00000000000000000000, 1683.00000000000000000000, 0.00000000000000000000
70.00000000000000000000, 0.00000000000000000000, 4251.28194732465640000000, 4413.33322541326830000000, 4338.46143237232720000000, 4987.17936522705440000000, 4238.46143481764560000000, 4303.07681785297880000000, 3955.38451866285550000000, 4380.51271339532100000000, 4465.12809594158990000000, 4815.38449763311470000000, 4208.20502530110120000000, 4046.15374721248960000000, 4071.28195172623010000000, 4416.92296891523070000000, 468.00000000000000000000, 4.00000000000000000000, 4.00000000000000000000, 4.00000000000000000000, 4.00000000000000000000, 4.00000000000000000000, 4.00000000000000000000, 4.00000000000000000000, 4.00000000000000000000, 4.00000000000000000000, 4.00000000000000000000, 4.00000000000000000000, 4.00000000000000000000, 4.00000000000000000000, 4.00000000000000000000, 4.00000000000000000000, 4.00000000000000000000, 1670.00000000000000000000, 1683.00000000000000000000, 0.00000000000000000000
71.00000000000000000000, 0.00000000000000000000, 4248.20502432297420000000, 4414.87168691410900000000, 4342.56399637457070000000, 4995.38449323154150000000, 4243.07681932016930000000, 4305.64092035438080000000, 3960.51272366565990000000, 4389.74348240036850000000, 4475.89732644747890000000, 4828.71783064040570000000, 4218.46143530671000000000, 4049.74349071445250000000, 4078.46143873015580000000, 4427.17937892083960000000, 418.00000000000000000000, 4.00000000000000000000, 4.00000000000000000000, 4.00000000000000000000, 4.00000000000000000000, 4.00000000000000000000, 4.00000000000000000000, 4.00000000000000000000, 4.00000000000000000000, 4.00000000000000000000, 4.00000000000000000000, 4.00000000000000000000, 4.00000000000000000000, 4.00000000000000000000, 4.00000000000000000000, 4.00000000000000000000, 4.00000000000000000000, 1670.00000000000000000000, 1681.00000000000000000000, 0.00000000000000000000
72.00000000000000000000, 0.00000000000000000000, 4254.35887032633850000000, 4417.94860991579210000000, 4347.69220137737470000000, 4994.87167273126120000000, 4235.38451181596340000000, 4310.25630485690450000000, 3971.79477467182910000000, 4400.51271290625750000000, 4484.61527495224620000000, 4833.33321514292950000000, 4218.97425580699020000000, 4053.33323421641530000000, 4088.71784873576420000000, 4430.25630192252170000000, 333.00000000000000000000, 4.00000000000000000000, 4.00000000000000000000, 4.00000000000000000000, 4.00000000000000000000, 4.00000000000000000000, 4.00000000000000000000, 4.00000000000000000000, 4.00000000000000000000, 4.00000000000000000000, 4.00000000000000000000, 4.00000000000000000000, 4.00000000000000000000, 4.00000000000000000000, 4.00000000000000000000, 4.00000000000000000000, 4.00000000000000000000, 1670.00000000000000000000, 1683.00000000000000000000, 0.00000000000000000000
73.00000000000000000000, 0.00000000000000000000, 4264.10245983166710000000, 4422.56399441831580000000, 4352.82040638017860000000, 4996.92295473238210000000, 4230.25630681315940000000, 4310.25630485690450000000, 3974.35887717323110000000, 4399.48707190569710000000, 4484.61527495224620000000, 4831.28193314180770000000, 4217.94861480642880000000, 4061.02554172062170000000, 4091.79477173744680000000, 4429.23066092196130000000, 413.00000000000000000000, 4.00000000000000000000, 4.00000000000000000000, 4.00000000000000000000, 4.00000000000000000000, 4.00000000000000000000, 4.00000000000000000000, 4.00000000000000000000, 4.00000000000000000000, 4.00000000000000000000, 4.00000000000000000000, 4.00000000000000000000, 4.00000000000000000000, 4.00000000000000000000, 4.00000000000000000000, 4.00000000000000000000, 4.00000000000000000000, 1671.00000000000000000000, 1682.00000000000000000000, 0.00000000000000000000
74.00000000000000000000, 0.00000000000000000000, 4257.43579332802160000000, 4420.51271241719410000000, 4351.79476537961820000000, 4997.94859573294340000000, 4236.41015281652380000000, 4308.71784335606300000000, 3963.07682616706190000000, 4384.10245689728440000000, 4468.20501894327300000000, 4826.15372813900380000000, 4215.38451230502690000000, 4060.51272122034110000000, 4085.12810523380130000000, 4427.69219942111980000000, 444.00000000000000000000, 4.00000000000000000000, 4.00000000000000000000, 4.00000000000000000000, 4.00000000000000000000, 4.00000000000000000000, 4.00000000000000000000, 4.00000000000000000000, 4.00000000000000000000, 4.00000000000000000000, 4.00000000000000000000, 4.00000000000000000000, 4.00000000000000000000, 4.00000000000000000000, 4.00000000000000000000, 4.00000000000000000000, 4.00000000000000000000, 1669.00000000000000000000, 1682.00000000000000000000, 0.00000000000000000000
75.00000000000000000000, 0.00000000000000000000, 4247.69220382269300000000, 4423.58963541887620000000, 4345.64091937625290000000, 4993.84603173069990000000, 4246.15374232185240000000, 4311.28194585746500000000, 3960.51272366565990000000, 4381.02553389560220000000, 4463.07681394046810000000, 4826.15372813900380000000, 4216.92297380586840000000, 4054.35887521697620000000, 4087.69220773520330000000, 4430.76912242280200000000, 415.00000000000000000000, 4.00000000000000000000, 4.00000000000000000000, 4.00000000000000000000, 4.00000000000000000000, 4.00000000000000000000, 4.00000000000000000000, 4.00000000000000000000, 4.00000000000000000000, 4.00000000000000000000, 4.00000000000000000000, 4.00000000000000000000, 4.00000000000000000000, 4.00000000000000000000, 4.00000000000000000000, 4.00000000000000000000, 4.00000000000000000000, 1671.00000000000000000000, 1681.00000000000000000000, 0.00000000000000000000
76.00000000000000000000, 0.00000000000000000000, 4248.20502432297420000000, 4427.69219942111980000000, 4335.89732987092520000000, 4989.23064722817620000000, 4247.69220382269300000000, 4313.84604835886690000000, 3972.30759517210940000000, 4394.87168740317340000000, 4478.97424944916110000000, 4833.84603564320970000000, 4216.41015330558820000000, 4049.23067021417180000000, 4091.28195123716610000000, 4429.74348142224150000000, 403.00000000000000000000, 4.00000000000000000000, 4.00000000000000000000, 4.00000000000000000000, 4.00000000000000000000, 4.00000000000000000000, 4.00000000000000000000, 4.00000000000000000000, 4.00000000000000000000, 4.00000000000000000000, 4.00000000000000000000, 4.00000000000000000000, 4.00000000000000000000, 4.00000000000000000000, 4.00000000000000000000, 4.00000000000000000000, 4.00000000000000000000, 1670.00000000000000000000, 1682.00000000000000000000, 0.00000000000000000000
77.00000000000000000000, 0.00000000000000000000, 4245.64092182157130000000, 4414.87168691410900000000, 4326.66656086587770000000, 4984.10244222537220000000, 4235.38451181596340000000, 4313.84604835886690000000, 3965.12810816818360000000, 4389.23066190008830000000, 4476.41014694775910000000, 4824.10244613788200000000, 4200.51271779689520000000, 4037.43579870772240000000, 4074.35887472791230000000, 4409.74348191130500000000, 402.00000000000000000000, 4.00000000000000000000, 4.00000000000000000000, 4.00000000000000000000, 4.00000000000000000000, 4.00000000000000000000, 4.00000000000000000000, 4.00000000000000000000, 4.00000000000000000000, 4.00000000000000000000, 4.00000000000000000000, 4.00000000000000000000, 4.00000000000000000000, 4.00000000000000000000, 4.00000000000000000000, 4.00000000000000000000, 4.00000000000000000000, 1671.00000000000000000000, 1682.00000000000000000000, 0.00000000000000000000
78.00000000000000000000, 0.00000000000000000000, 4242.05117831960890000000, 4407.17937940990300000000, 4329.23066336727970000000, 4981.53833972397020000000, 4229.23066581259810000000, 4311.79476635774520000000, 3952.82041616145350000000, 4377.43579039363890000000, 4461.53835243962750000000, 4809.23065162974940000000, 4194.35887179352990000000, 4031.79477320463770000000, 4063.07682372174350000000, 4398.97425140541600000000, 444.00000000000000000000, 4.00000000000000000000, 4.00000000000000000000, 4.00000000000000000000, 4.00000000000000000000, 4.00000000000000000000, 4.00000000000000000000, 4.00000000000000000000, 4.00000000000000000000, 4.00000000000000000000, 4.00000000000000000000, 4.00000000000000000000, 4.00000000000000000000, 4.00000000000000000000, 4.00000000000000000000, 4.00000000000000000000, 4.00000000000000000000, 1670.00000000000000000000, 1682.00000000000000000000, 0.00000000000000000000
79.00000000000000000000, 0.00000000000000000000, 4251.28194732465640000000, 4422.56399441831580000000, 4343.58963737513110000000, 4992.82039073013950000000, 4243.07681932016930000000, 4311.28194585746500000000, 3964.61528766790340000000, 4392.82040540205160000000, 4471.28194194495520000000, 4828.20501014012550000000, 4213.33323030390510000000, 4049.74349071445250000000, 4083.07682323267950000000, 4419.99989191691380000000, 415.00000000000000000000, 4.00000000000000000000, 4.00000000000000000000, 4.00000000000000000000, 4.00000000000000000000, 4.00000000000000000000, 4.00000000000000000000, 4.00000000000000000000, 4.00000000000000000000, 4.00000000000000000000, 4.00000000000000000000, 4.00000000000000000000, 4.00000000000000000000, 4.00000000000000000000, 4.00000000000000000000, 4.00000000000000000000, 4.00000000000000000000, 1670.00000000000000000000, 1682.00000000000000000000, 0.00000000000000000000
80.00000000000000000000, 0.00000000000000000000, 4263.07681883110580000000, 4432.82040442392370000000, 4353.84604738073990000000, 5005.64090323714940000000, 4247.17938332241280000000, 4311.79476635774520000000, 3972.82041567239000000000, 4403.58963590793970000000, 4485.12809545252640000000, 4845.64090714965910000000, 4224.61528131007440000000, 4064.10246472230390000000, 4098.46143824109190000000, 4435.89732742560680000000, 403.00000000000000000000, 4.00000000000000000000, 4.00000000000000000000, 4.00000000000000000000, 4.00000000000000000000, 4.00000000000000000000, 4.00000000000000000000, 4.00000000000000000000, 4.00000000000000000000, 4.00000000000000000000, 4.00000000000000000000, 4.00000000000000000000, 4.00000000000000000000, 4.00000000000000000000, 4.00000000000000000000, 4.00000000000000000000, 4.00000000000000000000, 1670.00000000000000000000, 1682.00000000000000000000, 0.00000000000000000000
81.00000000000000000000, 0.00000000000000000000, 4264.61528033194740000000, 4428.71784042168020000000, 4352.30758587989840000000, 5001.02551873462560000000, 4239.48707581820690000000, 4309.74348435662340000000, 3963.58964666734250000000, 4390.76912340092990000000, 4478.97424944916110000000, 4833.33321514292950000000, 4217.43579430614860000000, 4056.92297771837820000000, 4093.84605373856810000000, 4430.76912242280200000000, 402.00000000000000000000, 4.00000000000000000000, 4.00000000000000000000, 4.00000000000000000000, 4.00000000000000000000, 4.00000000000000000000, 4.00000000000000000000, 4.00000000000000000000, 4.00000000000000000000, 4.00000000000000000000, 4.00000000000000000000, 4.00000000000000000000, 4.00000000000000000000, 4.00000000000000000000, 4.00000000000000000000, 4.00000000000000000000, 4.00000000000000000000, 1671.00000000000000000000, 1682.00000000000000000000, 0.00000000000000000000
82.00000000000000000000, 0.00000000000000000000, 4261.02553682998400000000, 4426.15373792027820000000, 4348.71784237793510000000, 4991.79474972957810000000, 4243.58963982045040000000, 4309.23066385634320000000, 3962.05118516650100000000, 4386.66655939868630000000, 4473.33322394607690000000, 4826.15372813900380000000, 4212.82040980362490000000, 4049.74349071445250000000, 4089.23066923604440000000, 4425.64091741999800000000, 444.00000000000000000000, 4.00000000000000000000, 4.00000000000000000000, 4.00000000000000000000, 4.00000000000000000000, 4.00000000000000000000, 4.00000000000000000000, 4.00000000000000000000, 4.00000000000000000000, 4.00000000000000000000, 4.00000000000000000000, 4.00000000000000000000, 4.00000000000000000000, 4.00000000000000000000, 4.00000000000000000000, 4.00000000000000000000, 4.00000000000000000000, 1670.00000000000000000000, 1681.00000000000000000000, 0.00000000000000000000
83.00000000000000000000, 0.00000000000000000000, 4259.99989582942360000000, 4428.20501992140000000000, 4352.30758587989840000000, 4993.84603173069990000000, 4250.76912682437610000000, 4311.28194585746500000000, 3971.79477467182910000000, 4389.23066190008830000000, 4472.82040344579670000000, 4832.82039464264930000000, 4217.43579430614860000000, 4056.41015721809800000000, 4084.61528473352060000000, 4428.71784042168020000000, 415.00000000000000000000, 4.00000000000000000000, 4.00000000000000000000, 4.00000000000000000000, 4.00000000000000000000, 4.00000000000000000000, 4.00000000000000000000, 4.00000000000000000000, 4.00000000000000000000, 4.00000000000000000000, 4.00000000000000000000, 4.00000000000000000000, 4.00000000000000000000, 4.00000000000000000000, 4.00000000000000000000, 4.00000000000000000000, 4.00000000000000000000, 1670.00000000000000000000, 1684.00000000000000000000, 0.00000000000000000000
84.00000000000000000000, 0.00000000000000000000, 4265.12810083222760000000, 4429.74348142224150000000, 4356.92297038242210000000, 5000.51269823434540000000, 4244.61528082101090000000, 4313.33322785858670000000, 3974.87169767351130000000, 4387.17937989896650000000, 4472.30758294551560000000, 4829.74347164096620000000, 4216.41015330558820000000, 4061.53836222090190000000, 4078.46143873015580000000, 4431.79476342336330000000, 403.00000000000000000000, 4.00000000000000000000, 4.00000000000000000000, 4.00000000000000000000, 4.00000000000000000000, 4.00000000000000000000, 4.00000000000000000000, 4.00000000000000000000, 4.00000000000000000000, 4.00000000000000000000, 4.00000000000000000000, 4.00000000000000000000, 4.00000000000000000000, 4.00000000000000000000, 4.00000000000000000000, 4.00000000000000000000, 4.00000000000000000000, 1670.00000000000000000000, 1681.00000000000000000000, 0.00000000000000000000
85.00000000000000000000, 0.00000000000000000000, 4263.07681883110580000000, 4423.07681491859600000000, 4350.76912437905680000000, 4997.43577523266320000000, 4239.99989631848710000000, 4311.79476635774520000000, 3967.69221066958560000000, 4386.15373889840610000000, 4473.84604444635720000000, 4819.48706163535830000000, 4206.66656380025960000000, 4049.74349071445250000000, 4072.82041322707120000000, 4422.56399441831580000000, 402.00000000000000000000, 4.00000000000000000000, 4.00000000000000000000, 4.00000000000000000000, 4.00000000000000000000, 4.00000000000000000000, 4.00000000000000000000, 4.00000000000000000000, 4.00000000000000000000, 4.00000000000000000000, 4.00000000000000000000, 4.00000000000000000000, 4.00000000000000000000, 4.00000000000000000000, 4.00000000000000000000, 4.00000000000000000000, 4.00000000000000000000, 1669.00000000000000000000, 1683.00000000000000000000, 0.00000000000000000000
86.00000000000000000000, 0.00000000000000000000, 4250.76912682437610000000, 4412.82040491298720000000, 4339.48707337288760000000, 4989.23064722817620000000, 4240.51271681876730000000, 4308.71784335606300000000, 3958.46144166453810000000, 4375.89732889279730000000, 4467.17937794271170000000, 4807.17936962862860000000, 4191.28194879184780000000, 4034.87169620632040000000, 4060.51272122034110000000, 4402.56399490737930000000, 444.00000000000000000000, 4.00000000000000000000, 4.00000000000000000000, 4.00000000000000000000, 4.00000000000000000000, 4.00000000000000000000, 4.00000000000000000000, 4.00000000000000000000, 4.00000000000000000000, 4.00000000000000000000, 4.00000000000000000000, 4.00000000000000000000, 4.00000000000000000000, 4.00000000000000000000, 4.00000000000000000000, 4.00000000000000000000, 4.00000000000000000000, 1671.00000000000000000000, 1682.00000000000000000000, 0.00000000000000000000
87.00000000000000000000, 0.00000000000000000000, 4245.64092182157130000000, 4409.23066141102480000000, 4336.41015037120540000000, 4986.15372422649400000000, 4235.38451181596340000000, 4309.74348435662340000000, 3958.46144166453810000000, 4365.12809838690920000000, 4458.46142943794440000000, 4796.92295962301980000000, 4184.61528228820230000000, 4031.28195270435750000000, 4052.30759321585450000000, 4393.84604640261200000000, 415.00000000000000000000, 4.00000000000000000000, 4.00000000000000000000, 4.00000000000000000000, 4.00000000000000000000, 4.00000000000000000000, 4.00000000000000000000, 4.00000000000000000000, 4.00000000000000000000, 4.00000000000000000000, 4.00000000000000000000, 4.00000000000000000000, 4.00000000000000000000, 4.00000000000000000000, 4.00000000000000000000, 4.00000000000000000000, 4.00000000000000000000, 1669.00000000000000000000, 1682.00000000000000000000, 0.00000000000000000000
88.00000000000000000000, 0.00000000000000000000, 4248.71784482325440000000, 4410.76912291186640000000, 4336.41015037120540000000, 4984.61526272565240000000, 4231.79476831400010000000, 4308.71784335606300000000, 3957.43580066397730000000, 4364.61527788662810000000, 4459.99989093878590000000, 4797.43578012330000000000, 4189.74348729100620000000, 4033.84605520575950000000, 4055.38451621753710000000, 4397.94861040485560000000, 403.00000000000000000000, 4.00000000000000000000, 4.00000000000000000000, 4.00000000000000000000, 4.00000000000000000000, 4.00000000000000000000, 4.00000000000000000000, 4.00000000000000000000, 4.00000000000000000000, 4.00000000000000000000, 4.00000000000000000000, 4.00000000000000000000, 4.00000000000000000000, 4.00000000000000000000, 4.00000000000000000000, 4.00000000000000000000, 4.00000000000000000000, 1670.00000000000000000000, 1682.00000000000000000000, 0.00000000000000000000
89.00000000000000000000, 0.00000000000000000000, 4248.20502432297420000000, 4410.25630241158520000000, 4334.35886837008370000000, 4984.61526272565240000000, 4233.84605031512180000000, 4306.66656135494120000000, 3948.71785215921050000000, 4360.51271388438540000000, 4459.99989093878590000000, 4795.89731862245940000000, 4190.76912829156750000000, 4035.89733720688130000000, 4055.38451621753710000000, 4399.48707190569710000000, 402.00000000000000000000, 4.00000000000000000000, 4.00000000000000000000, 4.00000000000000000000, 4.00000000000000000000, 4.00000000000000000000, 4.00000000000000000000, 4.00000000000000000000, 4.00000000000000000000, 4.00000000000000000000, 4.00000000000000000000, 4.00000000000000000000, 4.00000000000000000000, 4.00000000000000000000, 4.00000000000000000000, 4.00000000000000000000, 4.00000000000000000000, 1670.00000000000000000000, 1681.00000000000000000000, 0.00000000000000000000
90.00000000000000000000, 0.00000000000000000000, 4247.17938332241280000000, 4410.76912291186640000000, 4337.94861187204700000000, 4990.76910872901770000000, 4234.35887081540300000000, 4308.20502285578280000000, 3950.25631366005150000000, 4357.43579088270230000000, 4456.41014743682260000000, 4796.41013912273960000000, 4193.33323079296950000000, 4042.56400371052680000000, 4054.35887521697620000000, 4402.05117440709910000000, 444.00000000000000000000, 4.00000000000000000000, 4.00000000000000000000, 4.00000000000000000000, 4.00000000000000000000, 4.00000000000000000000, 4.00000000000000000000, 4.00000000000000000000, 4.00000000000000000000, 4.00000000000000000000, 4.00000000000000000000, 4.00000000000000000000, 4.00000000000000000000, 4.00000000000000000000, 4.00000000000000000000, 4.00000000000000000000, 4.00000000000000000000, 1670.00000000000000000000, 1681.00000000000000000000, 0.00000000000000000000
91.00000000000000000000, 0.00000000000000000000, 4249.74348582381480000000, 4411.28194341214660000000, 4343.07681687485090000000, 4993.84603173069990000000, 4234.35887081540300000000, 4313.33322785858670000000, 3959.48708266509900000000, 4368.20502138859140000000, 4466.66655744243140000000, 4808.20501062918900000000, 4201.53835879745570000000, 4049.74349071445250000000, 4062.56400322146280000000, 4410.76912291186640000000, 415.00000000000000000000, 4.00000000000000000000, 4.00000000000000000000, 4.00000000000000000000, 4.00000000000000000000, 4.00000000000000000000, 4.00000000000000000000, 4.00000000000000000000, 4.00000000000000000000, 4.00000000000000000000, 4.00000000000000000000, 4.00000000000000000000, 4.00000000000000000000, 4.00000000000000000000, 4.00000000000000000000, 4.00000000000000000000, 4.00000000000000000000, 1670.00000000000000000000, 1681.00000000000000000000, 0.00000000000000000000
92.00000000000000000000, 0.00000000000000000000, 4253.84604982605830000000, 4410.25630241158520000000, 4343.58963737513110000000, 4990.76910872901770000000, 4235.89733231624360000000, 4316.41015086026890000000, 3960.51272366565990000000, 4374.35886739195670000000, 4474.87168544691850000000, 4814.87167713283450000000, 4203.58964079857740000000, 4050.25631121473270000000, 4068.20502872454740000000, 4413.84604591354860000000, 403.00000000000000000000, 4.00000000000000000000, 4.00000000000000000000, 4.00000000000000000000, 4.00000000000000000000, 4.00000000000000000000, 4.00000000000000000000, 4.00000000000000000000, 4.00000000000000000000, 4.00000000000000000000, 4.00000000000000000000, 4.00000000000000000000, 4.00000000000000000000, 4.00000000000000000000, 4.00000000000000000000, 4.00000000000000000000, 4.00000000000000000000, 1670.00000000000000000000, 1682.00000000000000000000, 0.00000000000000000000
93.00000000000000000000, 0.00000000000000000000, 4259.99989582942360000000, 4417.43578941551100000000, 4347.69220137737470000000, 4995.89731373182170000000, 4235.89733231624360000000, 4313.84604835886690000000, 3958.46144166453810000000, 4374.87168789223690000000, 4468.20501894327300000000, 4812.30757463143250000000, 4199.99989729661500000000, 4051.28195221529360000000, 4065.64092622314550000000, 4412.30758441270700000000, 402.00000000000000000000, 4.00000000000000000000, 4.00000000000000000000, 4.00000000000000000000, 4.00000000000000000000, 4.00000000000000000000, 4.00000000000000000000, 4.00000000000000000000, 4.00000000000000000000, 4.00000000000000000000, 4.00000000000000000000, 4.00000000000000000000, 4.00000000000000000000, 4.00000000000000000000, 4.00000000000000000000, 4.00000000000000000000, 4.00000000000000000000, 1670.00000000000000000000, 1683.00000000000000000000, 0.00000000000000000000
94.00000000000000000000, 0.00000000000000000000, 4266.66656233306910000000, 4425.64091741999800000000, 4354.35886788102020000000, 5004.61526223658890000000, 4234.87169131568320000000, 4310.25630485690450000000, 3961.02554416594010000000, 4383.07681589672300000000, 4468.71783944355320000000, 4814.87167713283450000000, 4203.07682029829720000000, 4051.79477271557430000000, 4071.28195172623010000000, 4414.87168691410900000000, 444.00000000000000000000, 4.00000000000000000000, 4.00000000000000000000, 4.00000000000000000000, 4.00000000000000000000, 4.00000000000000000000, 4.00000000000000000000, 4.00000000000000000000, 4.00000000000000000000, 4.00000000000000000000, 4.00000000000000000000, 4.00000000000000000000, 4.00000000000000000000, 4.00000000000000000000, 4.00000000000000000000, 4.00000000000000000000, 4.00000000000000000000, 1670.00000000000000000000, 1682.00000000000000000000, 0.00000000000000000000
95.00000000000000000000, 0.00000000000000000000, 4261.02553682998400000000, 4420.51271241719410000000, 4348.20502187765490000000, 4995.89731373182170000000, 4233.84605031512180000000, 4309.23066385634320000000, 3960.51272366565990000000, 4383.58963639700410000000, 4477.94860844860070000000, 4819.99988213563850000000, 4205.12810229941900000000, 4045.12810621192880000000, 4074.87169522819290000000, 4414.87168691410900000000, 415.00000000000000000000, 4.00000000000000000000, 4.00000000000000000000, 4.00000000000000000000, 4.00000000000000000000, 4.00000000000000000000, 4.00000000000000000000, 4.00000000000000000000, 4.00000000000000000000, 4.00000000000000000000, 4.00000000000000000000, 4.00000000000000000000, 4.00000000000000000000, 4.00000000000000000000, 4.00000000000000000000, 4.00000000000000000000, 4.00000000000000000000, 1669.00000000000000000000, 1683.00000000000000000000, 0.00000000000000000000
96.00000000000000000000, 0.00000000000000000000, 4251.79476782493660000000, 4411.79476391242680000000, 4341.02553487372920000000, 4984.61526272565240000000, 4232.82040931456140000000, 4311.28194585746500000000, 3955.38451866285550000000, 4372.30758539083490000000, 4473.33322394607690000000, 4815.38449763311470000000, 4198.97425629605370000000, 4038.97426020856350000000, 4062.05118272118260000000, 4405.64091790906150000000, 403.00000000000000000000, 4.00000000000000000000, 4.00000000000000000000, 4.00000000000000000000, 4.00000000000000000000, 4.00000000000000000000, 4.00000000000000000000, 4.00000000000000000000, 4.00000000000000000000, 4.00000000000000000000, 4.00000000000000000000, 4.00000000000000000000, 4.00000000000000000000, 4.00000000000000000000, 4.00000000000000000000, 4.00000000000000000000, 4.00000000000000000000, 1670.00000000000000000000, 1682.00000000000000000000, 0.00000000000000000000
97.00000000000000000000, 0.00000000000000000000, 4256.41015232746030000000, 4414.87168691410900000000, 4348.71784237793510000000, 4993.84603173069990000000, 4234.87169131568320000000, 4312.30758685802630000000, 3953.84605716201440000000, 4365.12809838690920000000, 4461.53835243962750000000, 4806.15372862806730000000, 4198.97425629605370000000, 4043.07682421080700000000, 4057.94861871893910000000, 4401.53835390681890000000, 402.00000000000000000000, 4.00000000000000000000, 4.00000000000000000000, 4.00000000000000000000, 4.00000000000000000000, 4.00000000000000000000, 4.00000000000000000000, 4.00000000000000000000, 4.00000000000000000000, 4.00000000000000000000, 4.00000000000000000000, 4.00000000000000000000, 4.00000000000000000000, 4.00000000000000000000, 4.00000000000000000000, 4.00000000000000000000, 4.00000000000000000000, 1670.00000000000000000000, 1682.00000000000000000000, 0.00000000000000000000
98.00000000000000000000, 0.00000000000000000000, 4261.02553682998400000000, 4417.94860991579210000000, 4354.87168838130040000000, 5001.02551873462560000000, 4235.89733231624360000000, 4311.79476635774520000000, 3955.38451866285550000000, 4366.15373938746960000000, 4460.51271143906620000000, 4799.99988262470200000000, 4199.48707679633390000000, 4048.71784971389160000000, 4061.02554172062170000000, 4407.69219991018330000000, 444.00000000000000000000, 4.00000000000000000000, 4.00000000000000000000, 4.00000000000000000000, 4.00000000000000000000, 4.00000000000000000000, 4.00000000000000000000, 4.00000000000000000000, 4.00000000000000000000, 4.00000000000000000000, 4.00000000000000000000, 4.00000000000000000000, 4.00000000000000000000, 4.00000000000000000000, 4.00000000000000000000, 4.00000000000000000000, 4.00000000000000000000, 1670.00000000000000000000, 1682.00000000000000000000, 0.00000000000000000000
99.00000000000000000000, 0.00000000000000000000, 4251.79476782493660000000, 4406.66655890962280000000, 4347.69220137737470000000, 4987.17936522705440000000, 4231.79476831400010000000, 4310.25630485690450000000, 3957.43580066397730000000, 4366.66655988774980000000, 4461.02553193934640000000, 4791.28193411993560000000, 4191.79476929212800000000, 4044.10246521136790000000, 4048.20502921361140000000, 4406.15373840934260000000, 415.00000000000000000000, 4.00000000000000000000, 4.00000000000000000000, 4.00000000000000000000, 4.00000000000000000000, 4.00000000000000000000, 4.00000000000000000000, 4.00000000000000000000, 4.00000000000000000000, 4.00000000000000000000, 4.00000000000000000000, 4.00000000000000000000, 4.00000000000000000000, 4.00000000000000000000, 4.00000000000000000000, 4.00000000000000000000, 4.00000000000000000000, 1669.00000000000000000000, 1682.00000000000000000000, 0.00000000000000000000
100.00000000000000000000, 0.00000000000000000000, 4245.12810132129110000000, 4397.94861040485560000000, 4341.02553487372920000000, 4982.56398072453070000000, 4228.20502481203770000000, 4310.25630485690450000000, 3957.43580066397730000000, 4360.51271388438540000000, 4450.76912193373850000000, 4781.53834461460700000000, 4182.56400028708050000000, 4036.92297820744220000000, 4035.38451670660060000000, 4397.43578990457540000000, 403.00000000000000000000, 4.00000000000000000000, 4.00000000000000000000, 4.00000000000000000000, 4.00000000000000000000, 4.00000000000000000000, 4.00000000000000000000, 4.00000000000000000000, 4.00000000000000000000, 4.00000000000000000000, 4.00000000000000000000, 4.00000000000000000000, 4.00000000000000000000, 4.00000000000000000000, 4.00000000000000000000, 4.00000000000000000000, 4.00000000000000000000, 1670.00000000000000000000, 1683.00000000000000000000, 0.00000000000000000000
101.00000000000000000000, 0.00000000000000000000, 4247.69220382269300000000, 4402.56399490737930000000, 4342.05117587429050000000, 4994.35885223098010000000, 4229.74348631287920000000, 4309.23066385634320000000, 3956.92298016369700000000, 4356.92297038242210000000, 4444.61527593037320000000, 4777.43578061236440000000, 4183.07682078736070000000, 4035.89733720688130000000, 4040.51272170940500000000, 4394.87168740317340000000, 402.00000000000000000000, 4.00000000000000000000, 4.00000000000000000000, 4.00000000000000000000, 4.00000000000000000000, 4.00000000000000000000, 4.00000000000000000000, 4.00000000000000000000, 4.00000000000000000000, 4.00000000000000000000, 4.00000000000000000000, 4.00000000000000000000, 4.00000000000000000000, 4.00000000000000000000, 4.00000000000000000000, 4.00000000000000000000, 4.00000000000000000000, 1669.00000000000000000000, 1682.00000000000000000000, 0.00000000000000000000
102.00000000000000000000, 0.00000000000000000000, 4247.69220382269300000000, 4403.07681540765950000000, 4342.56399637457070000000, 4993.33321123041970000000, 4230.76912731343960000000, 4306.15374085466100000000, 3957.43580066397730000000, 4367.69220088831120000000, 4454.87168593598200000000, 4785.64090861685050000000, 4189.74348729100620000000, 4037.94861920800300000000, 4047.69220871333070000000, 4400.51271290625750000000, 444.00000000000000000000, 4.00000000000000000000, 4.00000000000000000000, 4.00000000000000000000, 4.00000000000000000000, 4.00000000000000000000, 4.00000000000000000000, 4.00000000000000000000, 4.00000000000000000000, 4.00000000000000000000, 4.00000000000000000000, 4.00000000000000000000, 4.00000000000000000000, 4.00000000000000000000, 4.00000000000000000000, 4.00000000000000000000, 4.00000000000000000000, 1669.00000000000000000000, 1684.00000000000000000000, 0.00000000000000000000
103.00000000000000000000, 0.00000000000000000000, 4247.69220382269300000000, 4397.94861040485560000000, 4339.99989387316870000000, 4982.56398072453070000000, 4227.17938381147630000000, 4308.71784335606300000000, 3961.02554416594010000000, 4383.58963639700410000000, 4466.15373694215120000000, 4797.94860062358110000000, 4190.76912829156750000000, 4038.46143970828330000000, 4047.17938821305050000000, 4406.66655890962280000000, 415.00000000000000000000, 4.00000000000000000000, 4.00000000000000000000, 4.00000000000000000000, 4.00000000000000000000, 4.00000000000000000000, 4.00000000000000000000, 4.00000000000000000000, 4.00000000000000000000, 4.00000000000000000000, 4.00000000000000000000, 4.00000000000000000000, 4.00000000000000000000, 4.00000000000000000000, 4.00000000000000000000, 4.00000000000000000000, 4.00000000000000000000, 1670.00000000000000000000, 1681.00000000000000000000, 0.00000000000000000000
104.00000000000000000000, 0.00000000000000000000, 4248.71784482325440000000, 4397.94861040485560000000, 4336.92297087148560000000, 4982.05116022425050000000, 4226.66656331119610000000, 4312.82040735830650000000, 3961.02554416594010000000, 4385.64091839812590000000, 4463.58963444074930000000, 4801.53834412554350000000, 4186.66656428932400000000, 4036.41015770716150000000, 4048.71784971389160000000, 4406.15373840934260000000, 403.00000000000000000000, 4.00000000000000000000, 4.00000000000000000000, 4.00000000000000000000, 4.00000000000000000000, 4.00000000000000000000, 4.00000000000000000000, 4.00000000000000000000, 4.00000000000000000000, 4.00000000000000000000, 4.00000000000000000000, 4.00000000000000000000, 4.00000000000000000000, 4.00000000000000000000, 4.00000000000000000000, 4.00000000000000000000, 4.00000000000000000000, 1668.00000000000000000000, 1682.00000000000000000000, 0.00000000000000000000
105.00000000000000000000, 0.00000000000000000000, 4244.61528082101090000000, 4398.46143090513580000000, 4333.33322736952320000000, 4985.64090372621380000000, 4230.76912731343960000000, 4309.23066385634320000000, 3958.46144166453810000000, 4379.99989289504080000000, 4459.99989093878590000000, 4799.99988262470200000000, 4186.15374378904290000000, 4034.35887570603970000000, 4049.23067021417180000000, 4398.97425140541600000000, 402.00000000000000000000, 4.00000000000000000000, 4.00000000000000000000, 4.00000000000000000000, 4.00000000000000000000, 4.00000000000000000000, 4.00000000000000000000, 4.00000000000000000000, 4.00000000000000000000, 4.00000000000000000000, 4.00000000000000000000, 4.00000000000000000000, 4.00000000000000000000, 4.00000000000000000000, 4.00000000000000000000, 4.00000000000000000000, 4.00000000000000000000, 1671.00000000000000000000, 1682.00000000000000000000, 0.00000000000000000000
106.00000000000000000000, 0.00000000000000000000, 4245.64092182157130000000, 4397.43578990457540000000, 4333.84604786980340000000, 4984.10244222537220000000, 4232.30758881428120000000, 4306.15374085466100000000, 3958.46144166453810000000, 4381.02553389560220000000, 4463.58963444074930000000, 4803.07680562638510000000, 4191.79476929212800000000, 4033.33323470547930000000, 4049.74349071445250000000, 4397.43578990457540000000, 444.00000000000000000000, 4.00000000000000000000, 4.00000000000000000000, 4.00000000000000000000, 4.00000000000000000000, 4.00000000000000000000, 4.00000000000000000000, 4.00000000000000000000, 4.00000000000000000000, 4.00000000000000000000, 4.00000000000000000000, 4.00000000000000000000, 4.00000000000000000000, 4.00000000000000000000, 4.00000000000000000000, 4.00000000000000000000, 4.00000000000000000000, 1670.00000000000000000000, 1681.00000000000000000000, 0.00000000000000000000
107.00000000000000000000, 0.00000000000000000000, 4249.23066532353460000000, 4405.64091790906150000000, 4339.48707337288760000000, 4985.64090372621380000000, 4231.28194781371990000000, 4309.74348435662340000000, 3959.99990316537970000000, 4387.17937989896650000000, 4464.10245494102950000000, 4811.28193363087120000000, 4199.48707679633390000000, 4038.46143970828330000000, 4055.89733671781730000000, 4406.66655890962280000000, 415.00000000000000000000, 4.00000000000000000000, 4.00000000000000000000, 4.00000000000000000000, 4.00000000000000000000, 4.00000000000000000000, 4.00000000000000000000, 4.00000000000000000000, 4.00000000000000000000, 4.00000000000000000000, 4.00000000000000000000, 4.00000000000000000000, 4.00000000000000000000, 4.00000000000000000000, 4.00000000000000000000, 4.00000000000000000000, 4.00000000000000000000, 1670.00000000000000000000, 1681.00000000000000000000, 0.00000000000000000000
108.00000000000000000000, 0.00000000000000000000, 4250.25630632409500000000, 4413.33322541326830000000, 4342.56399637457070000000, 4993.84603173069990000000, 4231.28194781371990000000, 4309.23066385634320000000, 3959.48708266509900000000, 4387.69220039924680000000, 4461.53835243962750000000, 4814.87167713283450000000, 4202.56399979801700000000, 4043.07682421080700000000, 4060.51272122034110000000, 4412.30758441270700000000, 403.00000000000000000000, 4.00000000000000000000, 4.00000000000000000000, 4.00000000000000000000, 4.00000000000000000000, 4.00000000000000000000, 4.00000000000000000000, 4.00000000000000000000, 4.00000000000000000000, 4.00000000000000000000, 4.00000000000000000000, 4.00000000000000000000, 4.00000000000000000000, 4.00000000000000000000, 4.00000000000000000000, 4.00000000000000000000, 4.00000000000000000000, 1671.00000000000000000000, 1682.00000000000000000000, 0.00000000000000000000
109.00000000000000000000, 0.00000000000000000000, 4249.74348582381480000000, 4407.17937940990300000000, 4342.56399637457070000000, 4996.41013423210190000000, 4232.30758881428120000000, 4305.64092035438080000000, 3957.43580066397730000000, 4382.05117489616260000000, 4462.56399344018790000000, 4810.76911313059100000000, 4199.99989729661500000000, 4044.61528571164810000000, 4059.99990072006090000000, 4411.28194341214660000000, 402.00000000000000000000, 4.00000000000000000000, 4.00000000000000000000, 4.00000000000000000000, 4.00000000000000000000, 4.00000000000000000000, 4.00000000000000000000, 4.00000000000000000000, 4.00000000000000000000, 4.00000000000000000000, 4.00000000000000000000, 4.00000000000000000000, 4.00000000000000000000, 4.00000000000000000000, 4.00000000000000000000, 4.00000000000000000000, 4.00000000000000000000, 1671.00000000000000000000, 1682.00000000000000000000, 0.00000000000000000000
110.00000000000000000000, 0.00000000000000000000, 4248.71784482325440000000, 4399.99989240597730000000, 4341.02553487372920000000, 4989.23064722817620000000, 4231.79476831400010000000, 4304.10245885353920000000, 3949.23067265949070000000, 4375.38450839251710000000, 4461.53835243962750000000, 4801.53834412554350000000, 4197.43579479521210000000, 4042.05118321024610000000, 4058.46143921921930000000, 4409.23066141102480000000, 444.00000000000000000000, 4.00000000000000000000, 4.00000000000000000000, 4.00000000000000000000, 4.00000000000000000000, 4.00000000000000000000, 4.00000000000000000000, 4.00000000000000000000, 4.00000000000000000000, 4.00000000000000000000, 4.00000000000000000000, 4.00000000000000000000, 4.00000000000000000000, 4.00000000000000000000, 4.00000000000000000000, 4.00000000000000000000, 4.00000000000000000000, 1671.00000000000000000000, 1681.00000000000000000000, 0.00000000000000000000
111.00000000000000000000, 0.00000000000000000000, 4248.71784482325440000000, 4403.07681540765950000000, 4339.48707337288760000000, 4985.64090372621380000000, 4231.79476831400010000000, 4303.07681785297880000000, 3945.12810865724760000000, 4371.79476489055470000000, 4458.46142943794440000000, 4795.89731862245940000000, 4199.48707679633390000000, 4039.99990120912430000000, 4058.97425971950000000000, 4405.64091790906150000000, 415.00000000000000000000, 4.00000000000000000000, 4.00000000000000000000, 4.00000000000000000000, 4.00000000000000000000, 4.00000000000000000000, 4.00000000000000000000, 4.00000000000000000000, 4.00000000000000000000, 4.00000000000000000000, 4.00000000000000000000, 4.00000000000000000000, 4.00000000000000000000, 4.00000000000000000000, 4.00000000000000000000, 4.00000000000000000000, 4.00000000000000000000, 1671.00000000000000000000, 1682.00000000000000000000, 0.00000000000000000000
112.00000000000000000000, 0.00000000000000000000, 4248.20502432297420000000, 4410.76912291186640000000, 4342.05117587429050000000, 4991.28192922929790000000, 4233.84605031512180000000, 4301.53835635213730000000, 3950.76913416033180000000, 4376.41014939307840000000, 4456.92296793710370000000, 4803.07680562638510000000, 4202.56399979801700000000, 4042.56400371052680000000, 4059.99990072006090000000, 4406.15373840934260000000, 403.00000000000000000000, 4.00000000000000000000, 4.00000000000000000000, 4.00000000000000000000, 4.00000000000000000000, 4.00000000000000000000, 4.00000000000000000000, 4.00000000000000000000, 4.00000000000000000000, 4.00000000000000000000, 4.00000000000000000000, 4.00000000000000000000, 4.00000000000000000000, 4.00000000000000000000, 4.00000000000000000000, 4.00000000000000000000, 4.00000000000000000000, 1671.00000000000000000000, 1682.00000000000000000000, 0.00000000000000000000
113.00000000000000000000, 0.00000000000000000000, 4251.28194732465640000000, 4414.35886641382880000000, 4344.10245787541130000000, 4995.89731373182170000000, 4233.33322981484160000000, 4298.97425385073530000000, 3955.38451866285550000000, 4379.48707239476060000000, 4459.48707043850570000000, 4811.79475413115230000000, 4202.05117929773590000000, 4047.17938821305050000000, 4063.07682372174350000000, 4413.33322541326830000000, 402.00000000000000000000, 4.00000000000000000000, 4.00000000000000000000, 4.00000000000000000000, 4.00000000000000000000, 4.00000000000000000000, 4.00000000000000000000, 4.00000000000000000000, 4.00000000000000000000, 4.00000000000000000000, 4.00000000000000000000, 4.00000000000000000000, 4.00000000000000000000, 4.00000000000000000000, 4.00000000000000000000, 4.00000000000000000000, 4.00000000000000000000, 1671.00000000000000000000, 1683.00000000000000000000, 0.00000000000000000000
114.00000000000000000000, 0.00000000000000000000, 4254.87169082661880000000, 4414.35886641382880000000, 4343.58963737513110000000, 4996.92295473238210000000, 4230.25630681315940000000, 4298.97425385073530000000, 3956.41015966341640000000, 4382.05117489616260000000, 4469.23065994383340000000, 4812.82039513171280000000, 4199.99989729661500000000, 4046.15374721248960000000, 4065.12810572286480000000, 4417.43578941551100000000, 444.00000000000000000000, 4.00000000000000000000, 4.00000000000000000000, 4.00000000000000000000, 4.00000000000000000000, 4.00000000000000000000, 4.00000000000000000000, 4.00000000000000000000, 4.00000000000000000000, 4.00000000000000000000, 4.00000000000000000000, 4.00000000000000000000, 4.00000000000000000000, 4.00000000000000000000, 4.00000000000000000000, 4.00000000000000000000, 4.00000000000000000000, 1671.00000000000000000000, 1682.00000000000000000000, 0.00000000000000000000
115.00000000000000000000, 0.00000000000000000000, 4253.84604982605830000000, 4413.84604591354860000000, 4347.69220137737470000000, 4996.92295473238210000000, 4229.74348631287920000000, 4303.07681785297880000000, 3959.48708266509900000000, 4383.58963639700410000000, 4474.87168544691850000000, 4813.33321563199300000000, 4200.51271779689520000000, 4045.12810621192880000000, 4060.51272122034110000000, 4412.82040491298720000000, 415.00000000000000000000, 4.00000000000000000000, 4.00000000000000000000, 4.00000000000000000000, 4.00000000000000000000, 4.00000000000000000000, 4.00000000000000000000, 4.00000000000000000000, 4.00000000000000000000, 4.00000000000000000000, 4.00000000000000000000, 4.00000000000000000000, 4.00000000000000000000, 4.00000000000000000000, 4.00000000000000000000, 4.00000000000000000000, 4.00000000000000000000, 1670.00000000000000000000, 1683.00000000000000000000, 0.00000000000000000000
116.00000000000000000000, 0.00000000000000000000, 4254.35887032633850000000, 4414.87168691410900000000, 4349.74348337849640000000, 4995.89731373182170000000, 4232.82040931456140000000, 4306.15374085466100000000, 3958.97426216481880000000, 4370.25630338971310000000, 4464.61527544130970000000, 4810.76911313059100000000, 4201.02553829717540000000, 4044.61528571164810000000, 4059.99990072006090000000, 4406.66655890962280000000, 403.00000000000000000000, 4.00000000000000000000, 4.00000000000000000000, 4.00000000000000000000, 4.00000000000000000000, 4.00000000000000000000, 4.00000000000000000000, 4.00000000000000000000, 4.00000000000000000000, 4.00000000000000000000, 4.00000000000000000000, 4.00000000000000000000, 4.00000000000000000000, 4.00000000000000000000, 4.00000000000000000000, 4.00000000000000000000, 4.00000000000000000000, 1671.00000000000000000000, 1681.00000000000000000000, 0.00000000000000000000
117.00000000000000000000, 0.00000000000000000000, 4252.30758832521680000000, 4412.30758441270700000000, 4343.58963737513110000000, 4992.82039073013950000000, 4231.79476831400010000000, 4306.66656135494120000000, 3956.41015966341640000000, 4357.94861138298260000000, 4458.46142943794440000000, 4807.69219012890880000000, 4200.51271779689520000000, 4037.94861920800300000000, 4061.02554172062170000000, 4399.48707190569710000000, 402.00000000000000000000, 4.00000000000000000000, 4.00000000000000000000, 4.00000000000000000000, 4.00000000000000000000, 4.00000000000000000000, 4.00000000000000000000, 4.00000000000000000000, 4.00000000000000000000, 4.00000000000000000000, 4.00000000000000000000, 4.00000000000000000000, 4.00000000000000000000, 4.00000000000000000000, 4.00000000000000000000, 4.00000000000000000000, 4.00000000000000000000, 1669.00000000000000000000, 1681.00000000000000000000, 0.00000000000000000000
118.00000000000000000000, 0.00000000000000000000, 4252.30758832521680000000, 4410.76912291186640000000, 4340.51271437344890000000, 4991.28192922929790000000, 4233.33322981484160000000, 4309.23066385634320000000, 3959.99990316537970000000, 4366.15373938746960000000, 4465.64091644187010000000, 4810.25629263031080000000, 4196.92297429493190000000, 4038.46143970828330000000, 4057.43579821865890000000, 4394.35886690289230000000, 444.00000000000000000000, 4.00000000000000000000, 4.00000000000000000000, 4.00000000000000000000, 4.00000000000000000000, 4.00000000000000000000, 4.00000000000000000000, 4.00000000000000000000, 4.00000000000000000000, 4.00000000000000000000, 4.00000000000000000000, 4.00000000000000000000, 4.00000000000000000000, 4.00000000000000000000, 4.00000000000000000000, 4.00000000000000000000, 4.00000000000000000000, 1670.00000000000000000000, 1682.00000000000000000000, 0.00000000000000000000
119.00000000000000000000, 0.00000000000000000000, 4259.48707532914250000000, 4417.94860991579210000000, 4344.61527837569250000000, 4995.38449323154150000000, 4241.53835781932870000000, 4310.76912535718470000000, 3957.43580066397730000000, 4366.66655988774980000000, 4460.51271143906620000000, 4808.20501062918900000000, 4192.30758979240820000000, 4045.64092671220900000000, 4054.87169571725640000000, 4402.05117440709910000000, 415.00000000000000000000, 4.00000000000000000000, 4.00000000000000000000, 4.00000000000000000000, 4.00000000000000000000, 4.00000000000000000000, 4.00000000000000000000, 4.00000000000000000000, 4.00000000000000000000, 4.00000000000000000000, 4.00000000000000000000, 4.00000000000000000000, 4.00000000000000000000, 4.00000000000000000000, 4.00000000000000000000, 4.00000000000000000000, 4.00000000000000000000, 1669.00000000000000000000, 1682.00000000000000000000, 0.00000000000000000000
120.00000000000000000000, 0.00000000000000000000, 4259.48707532914250000000, 4419.48707141663270000000, 4343.07681687485090000000, 4996.41013423210190000000, 4243.07681932016930000000, 4304.61527935381950000000, 3949.74349315977130000000, 4352.82040638017860000000, 4453.33322443514040000000, 4798.97424162414150000000, 4188.71784629044580000000, 4040.51272170940500000000, 4052.82041371613510000000, 4402.56399490737930000000, 403.00000000000000000000, 4.00000000000000000000, 4.00000000000000000000, 4.00000000000000000000, 4.00000000000000000000, 4.00000000000000000000, 4.00000000000000000000, 4.00000000000000000000, 4.00000000000000000000, 4.00000000000000000000, 4.00000000000000000000, 4.00000000000000000000, 4.00000000000000000000, 4.00000000000000000000, 4.00000000000000000000, 4.00000000000000000000, 4.00000000000000000000, 1668.00000000000000000000, 1682.00000000000000000000, 0.00000000000000000000
121.00000000000000000000, 0.00000000000000000000, 4249.23066532353460000000, 4411.79476391242680000000, 4336.41015037120540000000, 4989.23064722817620000000, 4234.87169131568320000000, 4298.97425385073530000000, 3952.82041616145350000000, 4358.46143188326370000000, 4464.61527544130970000000, 4797.94860062358110000000, 4187.69220528988440000000, 4029.23067070323580000000, 4049.74349071445250000000, 4390.25630290064960000000, 402.00000000000000000000, 4.00000000000000000000, 4.00000000000000000000, 4.00000000000000000000, 4.00000000000000000000, 4.00000000000000000000, 4.00000000000000000000, 4.00000000000000000000, 4.00000000000000000000, 4.00000000000000000000, 4.00000000000000000000, 4.00000000000000000000, 4.00000000000000000000, 4.00000000000000000000, 4.00000000000000000000, 4.00000000000000000000, 4.00000000000000000000, 1669.00000000000000000000, 1683.00000000000000000000, 0.00000000000000000000
122.00000000000000000000, 0.00000000000000000000, 4246.66656282213260000000, 4409.23066141102480000000, 4335.38450937064500000000, 4988.71782672789600000000, 4230.25630681315940000000, 4297.43579234989370000000, 3961.02554416594010000000, 4374.35886739195670000000, 4470.25630094439480000000, 4801.02552362526330000000, 4190.76912829156750000000, 4027.17938870211400000000, 4046.66656771276980000000, 4388.20502089952790000000, 444.00000000000000000000, 4.00000000000000000000, 4.00000000000000000000, 4.00000000000000000000, 4.00000000000000000000, 4.00000000000000000000, 4.00000000000000000000, 4.00000000000000000000, 4.00000000000000000000, 4.00000000000000000000, 4.00000000000000000000, 4.00000000000000000000, 4.00000000000000000000, 4.00000000000000000000, 4.00000000000000000000, 4.00000000000000000000, 4.00000000000000000000, 1668.00000000000000000000, 1683.00000000000000000000, 0.00000000000000000000
123.00000000000000000000, 0.00000000000000000000, 4252.30758832521680000000, 4410.25630241158520000000, 4336.92297087148560000000, 4990.25628822873750000000, 4229.74348631287920000000, 4296.41015134933330000000, 3956.41015966341640000000, 4371.28194439027360000000, 4459.99989093878590000000, 4797.43578012330000000000, 4196.41015379465170000000, 4029.74349120351600000000, 4044.10246521136790000000, 4399.48707190569710000000, 415.00000000000000000000, 4.00000000000000000000, 4.00000000000000000000, 4.00000000000000000000, 4.00000000000000000000, 4.00000000000000000000, 4.00000000000000000000, 4.00000000000000000000, 4.00000000000000000000, 4.00000000000000000000, 4.00000000000000000000, 4.00000000000000000000, 4.00000000000000000000, 4.00000000000000000000, 4.00000000000000000000, 4.00000000000000000000, 4.00000000000000000000, 1668.00000000000000000000, 1683.00000000000000000000, 0.00000000000000000000
124.00000000000000000000, 0.00000000000000000000, 4250.25630632409500000000, 4409.74348191130500000000, 4336.41015037120540000000, 4987.69218572733460000000, 4229.23066581259810000000, 4295.89733084905220000000, 3944.61528815696690000000, 4359.48707288382410000000, 4455.38450643626220000000, 4795.38449812217820000000, 4199.48707679633390000000, 4032.82041420519860000000, 4046.15374721248960000000, 4402.56399490737930000000, 403.00000000000000000000, 4.00000000000000000000, 4.00000000000000000000, 4.00000000000000000000, 4.00000000000000000000, 4.00000000000000000000, 4.00000000000000000000, 4.00000000000000000000, 4.00000000000000000000, 4.00000000000000000000, 4.00000000000000000000, 4.00000000000000000000, 4.00000000000000000000, 4.00000000000000000000, 4.00000000000000000000, 4.00000000000000000000, 4.00000000000000000000, 1668.00000000000000000000, 1684.00000000000000000000, 0.00000000000000000000
125.00000000000000000000, 0.00000000000000000000, 4248.20502432297420000000, 4412.82040491298720000000, 4336.92297087148560000000, 4990.25628822873750000000, 4232.30758881428120000000, 4295.38451034877200000000, 3942.56400615584520000000, 4355.89732938186170000000, 4458.46142943794440000000, 4797.94860062358110000000, 4197.43579479521210000000, 4036.92297820744220000000, 4052.30759321585450000000, 4400.51271290625750000000, 402.00000000000000000000, 4.00000000000000000000, 4.00000000000000000000, 4.00000000000000000000, 4.00000000000000000000, 4.00000000000000000000, 4.00000000000000000000, 4.00000000000000000000, 4.00000000000000000000, 4.00000000000000000000, 4.00000000000000000000, 4.00000000000000000000, 4.00000000000000000000, 4.00000000000000000000, 4.00000000000000000000, 4.00000000000000000000, 4.00000000000000000000, 1670.00000000000000000000, 1683.00000000000000000000, 0.00000000000000000000
126.00000000000000000000, 0.00000000000000000000, 4250.76912682437610000000, 4413.84604591354860000000, 4339.48707337288760000000, 4995.38449323154150000000, 4232.82040931456140000000, 4295.38451034877200000000, 3946.66657015808870000000, 4360.51271388438540000000, 4461.02553193934640000000, 4797.94860062358110000000, 4198.46143579577350000000, 4035.38451670660060000000, 4054.87169571725640000000, 4409.23066141102480000000, 444.00000000000000000000, 4.00000000000000000000, 4.00000000000000000000, 4.00000000000000000000, 4.00000000000000000000, 4.00000000000000000000, 4.00000000000000000000, 4.00000000000000000000, 4.00000000000000000000, 4.00000000000000000000, 4.00000000000000000000, 4.00000000000000000000, 4.00000000000000000000, 4.00000000000000000000, 4.00000000000000000000, 4.00000000000000000000, 4.00000000000000000000, 1669.00000000000000000000, 1684.00000000000000000000, 0.00000000000000000000
127.00000000000000000000, 0.00000000000000000000, 4251.28194732465640000000, 4410.25630241158520000000, 4337.94861187204700000000, 4991.79474972957810000000, 4231.79476831400010000000, 4298.97425385073530000000, 3946.15374965780800000000, 4360.51271388438540000000, 4458.97424993822550000000, 4796.92295962301980000000, 4201.02553829717540000000, 4033.33323470547930000000, 4051.79477271557430000000, 4410.76912291186640000000, 415.00000000000000000000, 4.00000000000000000000, 4.00000000000000000000, 4.00000000000000000000, 4.00000000000000000000, 4.00000000000000000000, 4.00000000000000000000, 4.00000000000000000000, 4.00000000000000000000, 4.00000000000000000000, 4.00000000000000000000, 4.00000000000000000000, 4.00000000000000000000, 4.00000000000000000000, 4.00000000000000000000, 4.00000000000000000000, 4.00000000000000000000, 1671.00000000000000000000, 1683.00000000000000000000, 0.00000000000000000000
128.00000000000000000000, 0.00000000000000000000, 4248.71784482325440000000, 4412.30758441270700000000, 4333.84604786980340000000, 4989.74346772845640000000, 4234.35887081540300000000, 4303.07681785297880000000, 3942.05118565556500000000, 4355.89732938186170000000, 4455.89732693654240000000, 4793.84603662133760000000, 4199.99989729661500000000, 4037.94861920800300000000, 4049.74349071445250000000, 4404.61527690850110000000, 403.00000000000000000000, 4.00000000000000000000, 4.00000000000000000000, 4.00000000000000000000, 4.00000000000000000000, 4.00000000000000000000, 4.00000000000000000000, 4.00000000000000000000, 4.00000000000000000000, 4.00000000000000000000, 4.00000000000000000000, 4.00000000000000000000, 4.00000000000000000000, 4.00000000000000000000, 4.00000000000000000000, 4.00000000000000000000, 4.00000000000000000000, 1671.00000000000000000000, 1683.00000000000000000000, 0.00000000000000000000
0.00000000000000000000, 0.00000000000000000000, 4253.84604982605830000000, 4417.94860991579210000000, 4336.41015037120540000000, 4998.97423673350390000000, 4236.41015281652380000000, 4302.56399735269770000000, 3947.17939065836890000000, 4364.10245738634790000000, 4464.10245494102950000000, 4797.43578012330000000000, 4199.48707679633390000000, 4044.61528571164810000000, 4051.79477271557430000000, 4411.28194341214660000000, 457.00000000000000000000, 4.00000000000000000000, 4.00000000000000000000, 4.00000000000000000000, 4.00000000000000000000, 4.00000000000000000000, 4.00000000000000000000, 4.00000000000000000000, 4.00000000000000000000, 4.00000000000000000000, 4.00000000000000000000, 4.00000000000000000000, 4.00000000000000000000, 4.00000000000000000000, 4.00000000000000000000, 4.00000000000000000000, 4.00000000000000000000, 1672.00000000000000000000, 1683.00000000000000000000, 0.00000000000000000000
1.00000000000000000000, 0.00000000000000000000, 4264.10245983166710000000, 4422.05117391803470000000, 4343.07681687485090000000, 5003.07680073574740000000, 4236.41015281652380000000, 4300.51271535157590000000, 3956.41015966341640000000, 4375.38450839251710000000, 4476.92296744803930000000, 4807.69219012890880000000, 4199.99989729661500000000, 4046.15374721248960000000, 4060.51272122034110000000, 4426.66655842055840000000, 440.00000000000000000000, 4.00000000000000000000, 4.00000000000000000000, 4.00000000000000000000, 4.00000000000000000000, 4.00000000000000000000, 4.00000000000000000000, 4.00000000000000000000, 4.00000000000000000000, 4.00000000000000000000, 4.00000000000000000000, 4.00000000000000000000, 4.00000000000000000000, 4.00000000000000000000, 4.00000000000000000000, 4.00000000000000000000, 4.00000000000000000000, 1672.00000000000000000000, 1681.00000000000000000000, 0.00000000000000000000
2.00000000000000000000, 0.00000000000000000000, 4262.05117783054540000000, 4422.56399441831580000000, 4342.56399637457070000000, 4995.89731373182170000000, 4236.41015281652380000000, 4305.12809985409970000000, 3954.35887766229510000000, 4371.79476489055470000000, 4473.33322394607690000000, 4806.15372862806730000000, 4202.05117929773590000000, 4044.61528571164810000000, 4067.69220822426720000000, 4436.41014792588700000000, 416.00000000000000000000, 4.00000000000000000000, 4.00000000000000000000, 4.00000000000000000000, 4.00000000000000000000, 4.00000000000000000000, 4.00000000000000000000, 4.00000000000000000000, 4.00000000000000000000, 4.00000000000000000000, 4.00000000000000000000, 4.00000000000000000000, 4.00000000000000000000, 4.00000000000000000000, 4.00000000000000000000, 4.00000000000000000000, 4.00000000000000000000, 1672.00000000000000000000, 1682.00000000000000000000, 0.00000000000000000000
3.00000000000000000000, 0.00000000000000000000, 4256.41015232746030000000, 4422.05117391803470000000, 4342.05117587429050000000, 4993.33321123041970000000, 4241.02553731904750000000, 4303.58963835325900000000, 3946.15374965780800000000, 4365.64091888718940000000, 4463.58963444074930000000, 4802.05116462582370000000, 4203.07682029829720000000, 4043.58964471108720000000, 4068.20502872454740000000, 4438.97425042728900000000, 451.00000000000000000000, 4.00000000000000000000, 4.00000000000000000000, 4.00000000000000000000, 4.00000000000000000000, 4.00000000000000000000, 4.00000000000000000000, 4.00000000000000000000, 4.00000000000000000000, 4.00000000000000000000, 4.00000000000000000000, 4.00000000000000000000, 4.00000000000000000000, 4.00000000000000000000, 4.00000000000000000000, 4.00000000000000000000, 4.00000000000000000000, 1673.00000000000000000000, 1682.00000000000000000000, 0.00000000000000000000
4.00000000000000000000, 0.00000000000000000000, 4259.99989582942360000000, 4426.15373792027820000000, 4347.17938087709440000000, 5001.02551873462560000000, 4244.10246032073060000000, 4294.35886934821160000000, 3942.56400615584520000000, 4365.64091888718940000000, 4462.56399344018790000000, 4804.10244662694550000000, 4201.53835879745570000000, 4041.53836270996590000000, 4067.17938772398660000000, 4444.10245543009300000000, 469.00000000000000000000, 4.00000000000000000000, 4.00000000000000000000, 4.00000000000000000000, 4.00000000000000000000, 4.00000000000000000000, 4.00000000000000000000, 4.00000000000000000000, 4.00000000000000000000, 4.00000000000000000000, 4.00000000000000000000, 4.00000000000000000000, 4.00000000000000000000, 4.00000000000000000000, 4.00000000000000000000, 4.00000000000000000000, 4.00000000000000000000, 1672.00000000000000000000, 1682.00000000000000000000, 0.00000000000000000000
5.00000000000000000000, 0.00000000000000000000, 4265.12810083222760000000, 4430.76912242280200000000, 4346.66656037681420000000, 5003.07680073574740000000, 4238.97425531792670000000, 4296.92297184961350000000, 3946.15374965780800000000, 4365.64091888718940000000, 4463.07681394046810000000, 4802.05116462582370000000, 4203.58964079857740000000, 4038.46143970828330000000, 4066.15374672342570000000, 4447.17937843177510000000, 445.00000000000000000000, 4.00000000000000000000, 4.00000000000000000000, 4.00000000000000000000, 4.00000000000000000000, 4.00000000000000000000, 4.00000000000000000000, 4.00000000000000000000, 4.00000000000000000000, 4.00000000000000000000, 4.00000000000000000000, 4.00000000000000000000, 4.00000000000000000000, 4.00000000000000000000, 4.00000000000000000000, 4.00000000000000000000, 4.00000000000000000000, 1673.00000000000000000000, 1682.00000000000000000000, 0.00000000000000000000
6.00000000000000000000, 0.00000000000000000000, 4261.02553682998400000000, 4424.61527641943760000000, 4338.46143237232720000000, 4997.94859573294340000000, 4232.30758881428120000000, 4303.07681785297880000000, 3945.12810865724760000000, 4364.10245738634790000000, 4461.53835243962750000000, 4795.38449812217820000000, 4199.99989729661500000000, 4033.84605520575950000000, 4059.48708021978020000000, 4438.46142992700880000000, 468.00000000000000000000, 4.00000000000000000000, 4.00000000000000000000, 4.00000000000000000000, 4.00000000000000000000, 4.00000000000000000000, 4.00000000000000000000, 4.00000000000000000000, 4.00000000000000000000, 4.00000000000000000000, 4.00000000000000000000, 4.00000000000000000000, 4.00000000000000000000, 4.00000000000000000000, 4.00000000000000000000, 4.00000000000000000000, 4.00000000000000000000, 1671.00000000000000000000, 1682.00000000000000000000, 0.00000000000000000000
7.00000000000000000000, 0.00000000000000000000, 4250.76912682437610000000, 4413.84604591354860000000, 4332.82040686924300000000, 4996.41013423210190000000, 4231.28194781371990000000, 4297.94861285017400000000, 3940.51272415472390000000, 4364.61527788662810000000, 4461.53835243962750000000, 4793.84603662133760000000, 4188.20502579016470000000, 4027.69220920239470000000, 4050.76913171501340000000, 4424.61527641943760000000, 418.00000000000000000000, 4.00000000000000000000, 4.00000000000000000000, 4.00000000000000000000, 4.00000000000000000000, 4.00000000000000000000, 4.00000000000000000000, 4.00000000000000000000, 4.00000000000000000000, 4.00000000000000000000, 4.00000000000000000000, 4.00000000000000000000, 4.00000000000000000000, 4.00000000000000000000, 4.00000000000000000000, 4.00000000000000000000, 4.00000000000000000000, 1672.00000000000000000000, 1681.00000000000000000000, 0.00000000000000000000
8.00000000000000000000, 0.00000000000000000000, 4248.20502432297420000000, 4412.82040491298720000000, 4331.79476586868170000000, 4993.33321123041970000000, 4233.84605031512180000000, 4301.02553585185710000000, 3947.69221115864960000000, 4367.17938038803090000000, 4463.07681394046810000000, 4795.38449812217820000000, 4189.74348729100620000000, 4029.23067070323580000000, 4053.33323421641530000000, 4421.53835341775450000000, 333.00000000000000000000, 4.00000000000000000000, 4.00000000000000000000, 4.00000000000000000000, 4.00000000000000000000, 4.00000000000000000000, 4.00000000000000000000, 4.00000000000000000000, 4.00000000000000000000, 4.00000000000000000000, 4.00000000000000000000, 4.00000000000000000000, 4.00000000000000000000, 4.00000000000000000000, 4.00000000000000000000, 4.00000000000000000000, 4.00000000000000000000, 1670.00000000000000000000, 1682.00000000000000000000, 0.00000000000000000000
9.00000000000000000000, 0.00000000000000000000, 4261.02553682998400000000, 4424.61527641943760000000, 4337.43579137176680000000, 4992.82039073013950000000, 4235.89733231624360000000, 4310.25630485690450000000, 3956.41015966341640000000, 4370.25630338971310000000, 4464.61527544130970000000, 4799.48706212442180000000, 4202.05117929773590000000, 4036.92297820744220000000, 4061.02554172062170000000, 4429.74348142224150000000, 413.00000000000000000000, 4.00000000000000000000, 4.00000000000000000000, 4.00000000000000000000, 4.00000000000000000000, 4.00000000000000000000, 4.00000000000000000000, 4.00000000000000000000, 4.00000000000000000000, 4.00000000000000000000, 4.00000000000000000000, 4.00000000000000000000, 4.00000000000000000000, 4.00000000000000000000, 4.00000000000000000000, 4.00000000000000000000, 4.00000000000000000000, 1671.00000000000000000000, 1683.00000000000000000000, 0.00000000000000000000
10.00000000000000000000, 0.00000000000000000000, 4263.07681883110580000000, 4428.20501992140000000000, 4341.02553487372920000000, 4995.89731373182170000000, 4236.41015281652380000000, 4306.66656135494120000000, 3949.74349315977130000000, 4367.69220088831120000000, 4463.58963444074930000000, 4803.58962612666530000000, 4201.53835879745570000000, 4036.41015770716150000000, 4059.99990072006090000000, 4431.28194292308220000000, 444.00000000000000000000, 4.00000000000000000000, 4.00000000000000000000, 4.00000000000000000000, 4.00000000000000000000, 4.00000000000000000000, 4.00000000000000000000, 4.00000000000000000000, 4.00000000000000000000, 4.00000000000000000000, 4.00000000000000000000, 4.00000000000000000000, 4.00000000000000000000, 4.00000000000000000000, 4.00000000000000000000, 4.00000000000000000000, 4.00000000000000000000, 1670.00000000000000000000, 1682.00000000000000000000, 0.00000000000000000000
11.00000000000000000000, 0.00000000000000000000, 4252.82040882549790000000, 4416.92296891523070000000, 4335.38450937064500000000, 4995.89731373182170000000, 4234.35887081540300000000, 4301.02553585185710000000, 3941.02554465500410000000, 4360.51271388438540000000, 4462.05117293990770000000, 4797.94860062358110000000, 4196.41015379465170000000, 4028.71785020295560000000, 4058.97425971950000000000, 4425.12809691971780000000, 415.00000000000000000000, 4.00000000000000000000, 4.00000000000000000000, 4.00000000000000000000, 4.00000000000000000000, 4.00000000000000000000, 4.00000000000000000000, 4.00000000000000000000, 4.00000000000000000000, 4.00000000000000000000, 4.00000000000000000000, 4.00000000000000000000, 4.00000000000000000000, 4.00000000000000000000, 4.00000000000000000000, 4.00000000000000000000, 4.00000000000000000000, 1669.00000000000000000000, 1683.00000000000000000000, 0.00000000000000000000
12.00000000000000000000, 0.00000000000000000000, 4256.92297282774050000000, 4418.46143041607230000000, 4335.89732987092520000000, 4994.87167273126120000000, 4232.30758881428120000000, 4302.56399735269770000000, 3944.10246765668670000000, 4357.43579088270230000000, 4462.56399344018790000000, 4794.35885712161780000000, 4198.97425629605370000000, 4026.66656820183380000000, 4060.51272122034110000000, 4422.05117391803470000000, 403.00000000000000000000, 4.00000000000000000000, 4.00000000000000000000, 4.00000000000000000000, 4.00000000000000000000, 4.00000000000000000000, 4.00000000000000000000, 4.00000000000000000000, 4.00000000000000000000, 4.00000000000000000000, 4.00000000000000000000, 4.00000000000000000000, 4.00000000000000000000, 4.00000000000000000000, 4.00000000000000000000, 4.00000000000000000000, 4.00000000000000000000, 1670.00000000000000000000, 1682.00000000000000000000, 0.00000000000000000000
13.00000000000000000000, 0.00000000000000000000, 4266.15374183278800000000, 4428.71784042168020000000, 4343.07681687485090000000, 4995.89731373182170000000, 4235.38451181596340000000, 4299.48707435101550000000, 3944.10246765668670000000, 4357.94861138298260000000, 4462.56399344018790000000, 4795.89731862245940000000, 4197.94861529549330000000, 4030.25631170379670000000, 4054.35887521697620000000, 4424.61527641943760000000, 402.00000000000000000000, 4.00000000000000000000, 4.00000000000000000000, 4.00000000000000000000, 4.00000000000000000000, 4.00000000000000000000, 4.00000000000000000000, 4.00000000000000000000, 4.00000000000000000000, 4.00000000000000000000, 4.00000000000000000000, 4.00000000000000000000, 4.00000000000000000000, 4.00000000000000000000, 4.00000000000000000000, 4.00000000000000000000, 4.00000000000000000000, 1670.00000000000000000000, 1683.00000000000000000000, 0.00000000000000000000
14.00000000000000000000, 0.00000000000000000000, 4263.07681883110580000000, 4427.69219942111980000000, 4343.07681687485090000000, 5000.51269823434540000000, 4239.99989631848710000000, 4297.43579234989370000000, 3941.02554465500410000000, 4359.99989338410430000000, 4457.43578843738400000000, 4795.89731862245940000000, 4196.41015379465170000000, 4032.82041420519860000000, 4051.28195221529360000000, 4428.71784042168020000000, 444.00000000000000000000, 4.00000000000000000000, 4.00000000000000000000, 4.00000000000000000000, 4.00000000000000000000, 4.00000000000000000000, 4.00000000000000000000, 4.00000000000000000000, 4.00000000000000000000, 4.00000000000000000000, 4.00000000000000000000, 4.00000000000000000000, 4.00000000000000000000, 4.00000000000000000000, 4.00000000000000000000, 4.00000000000000000000, 4.00000000000000000000, 1670.00000000000000000000, 1682.00000000000000000000, 0.00000000000000000000
15.00000000000000000000, 0.00000000000000000000, 4259.48707532914250000000, 4422.56399441831580000000, 4340.51271437344890000000, 5002.05115973518700000000, 4238.97425531792670000000, 4303.07681785297880000000, 3948.20503165892980000000, 4368.71784188887160000000, 4458.97424993822550000000, 4794.87167762189800000000, 4200.51271779689520000000, 4033.33323470547930000000, 4054.87169571725640000000, 4423.58963541887620000000, 415.00000000000000000000, 4.00000000000000000000, 4.00000000000000000000, 4.00000000000000000000, 4.00000000000000000000, 4.00000000000000000000, 4.00000000000000000000, 4.00000000000000000000, 4.00000000000000000000, 4.00000000000000000000, 4.00000000000000000000, 4.00000000000000000000, 4.00000000000000000000, 4.00000000000000000000, 4.00000000000000000000, 4.00000000000000000000, 4.00000000000000000000, 1669.00000000000000000000, 1683.00000000000000000000, 0.00000000000000000000
16.00000000000000000000, 0.00000000000000000000, 4259.99989582942360000000, 4424.61527641943760000000, 4342.56399637457070000000, 4996.41013423210190000000, 4232.30758881428120000000, 4306.66656135494120000000, 3958.97426216481880000000, 4379.48707239476060000000, 4472.30758294551560000000, 4802.05116462582370000000, 4201.53835879745570000000, 4036.41015770716150000000, 4054.87169571725640000000, 4418.46143041607230000000, 0.00000000000000000000, 4.00000000000000000000, 4.00000000000000000000, 4.00000000000000000000, 4.00000000000000000000, 4.00000000000000000000, 4.00000000000000000000, 4.00000000000000000000, 4.00000000000000000000, 4.00000000000000000000, 4.00000000000000000000, 4.00000000000000000000, 4.00000000000000000000, 4.00000000000000000000, 4.00000000000000000000, 4.00000000000000000000, 4.00000000000000000000, 1670.00000000000000000000, 1683.00000000000000000000, 0.00000000000000000000
17.00000000000000000000, 0.00000000000000000000, 4261.53835733026430000000, 4427.69219942111980000000, 4341.02553487372920000000, 4991.79474972957810000000, 4230.25630681315940000000, 4304.10245885353920000000, 3957.43580066397730000000, 4375.89732889279730000000, 4474.87168544691850000000, 4814.87167713283450000000, 4203.07682029829720000000, 4043.07682421080700000000, 4058.46143921921930000000, 4426.15373792027820000000, 0.00000000000000000000, 4.00000000000000000000, 4.00000000000000000000, 4.00000000000000000000, 4.00000000000000000000, 4.00000000000000000000, 4.00000000000000000000, 4.00000000000000000000, 4.00000000000000000000, 4.00000000000000000000, 4.00000000000000000000, 4.00000000000000000000, 4.00000000000000000000, 4.00000000000000000000, 4.00000000000000000000, 4.00000000000000000000, 4.00000000000000000000, 1669.00000000000000000000, 1682.00000000000000000000, 0.00000000000000000000
18.00000000000000000000, 0.00000000000000000000, 4263.07681883110580000000, 4428.20501992140000000000, 4341.02553487372920000000, 4995.38449323154150000000, 4239.99989631848710000000, 4304.61527935381950000000, 3946.66657015808870000000, 4366.66655988774980000000, 4463.07681394046810000000, 4812.82039513171280000000, 4205.64092279969920000000, 4045.12810621192880000000, 4066.66656722370640000000, 4431.28194292308220000000, 0.00000000000000000000, 4.00000000000000000000, 4.00000000000000000000, 4.00000000000000000000, 4.00000000000000000000, 4.00000000000000000000, 4.00000000000000000000, 4.00000000000000000000, 4.00000000000000000000, 4.00000000000000000000, 4.00000000000000000000, 4.00000000000000000000, 4.00000000000000000000, 4.00000000000000000000, 4.00000000000000000000, 4.00000000000000000000, 4.00000000000000000000, 1670.00000000000000000000, 1681.00000000000000000000, 0.00000000000000000000
19.00000000000000000000, 0.00000000000000000000, 4264.61528033194740000000, 4429.23066092196130000000, 4346.66656037681420000000, 5001.53833923490580000000, 4248.71784482325440000000, 4309.23066385634320000000, 3945.64092915752780000000, 4365.12809838690920000000, 4456.41014743682260000000, 4799.48706212442180000000, 4201.53835879745570000000, 4042.05118321024610000000, 4068.71784922482770000000, 4430.25630192252170000000, 0.00000000000000000000, 4.00000000000000000000, 4.00000000000000000000, 4.00000000000000000000, 4.00000000000000000000, 4.00000000000000000000, 4.00000000000000000000, 4.00000000000000000000, 4.00000000000000000000, 4.00000000000000000000, 4.00000000000000000000, 4.00000000000000000000, 4.00000000000000000000, 4.00000000000000000000, 4.00000000000000000000, 4.00000000000000000000, 4.00000000000000000000, 1670.00000000000000000000, 1682.00000000000000000000, 0.00000000000000000000
20.00000000000000000000, 0.00000000000000000000, 4269.74348533475130000000, 4428.71784042168020000000, 4352.82040638017860000000, 5001.02551873462560000000, 4243.07681932016930000000, 4310.25630485690450000000, 3954.35887766229510000000, 4367.69220088831120000000, 4461.02553193934640000000, 4800.51270312498310000000, 4202.05117929773590000000, 4043.07682421080700000000, 4068.20502872454740000000, 4437.43578892644750000000, 0.00000000000000000000, 4.00000000000000000000, 4.00000000000000000000, 4.00000000000000000000, 4.00000000000000000000, 4.00000000000000000000, 4.00000000000000000000, 4.00000000000000000000, 4.00000000000000000000, 4.00000000000000000000, 4.00000000000000000000, 4.00000000000000000000, 4.00000000000000000000, 4.00000000000000000000, 4.00000000000000000000, 4.00000000000000000000, 4.00000000000000000000, 1670.00000000000000000000, 1681.00000000000000000000, 0.00000000000000000000
21.00000000000000000000, 0.00000000000000000000, 4272.30758783615330000000, 4429.23066092196130000000, 4354.35886788102020000000, 5001.02551873462560000000, 4232.30758881428120000000, 4307.17938185522140000000, 3956.41015966341640000000, 4372.82040589111510000000, 4470.25630094439480000000, 4810.76911313059100000000, 4212.82040980362490000000, 4046.15374721248960000000, 4070.25631072566920000000, 4442.56399392925140000000, 0.00000000000000000000, 4.00000000000000000000, 4.00000000000000000000, 4.00000000000000000000, 4.00000000000000000000, 4.00000000000000000000, 4.00000000000000000000, 4.00000000000000000000, 4.00000000000000000000, 4.00000000000000000000, 4.00000000000000000000, 4.00000000000000000000, 4.00000000000000000000, 4.00000000000000000000, 4.00000000000000000000, 4.00000000000000000000, 4.00000000000000000000, 1669.00000000000000000000, 1681.00000000000000000000, 0.00000000000000000000
22.00000000000000000000, 0.00000000000000000000, 4268.71784433419090000000, 4429.23066092196130000000, 4352.82040638017860000000, 5003.58962123602760000000, 4234.87169131568320000000, 4308.71784335606300000000, 3956.92298016369700000000, 4382.05117489616260000000, 4475.38450594719870000000, 4814.87167713283450000000, 4218.46143530671000000000, 4049.23067021417180000000, 4071.79477222651030000000, 4437.94860942672770000000, 0.00000000000000000000, 4.00000000000000000000, 4.00000000000000000000, 4.00000000000000000000, 4.00000000000000000000, 4.00000000000000000000, 4.00000000000000000000, 4.00000000000000000000, 4.00000000000000000000, 4.00000000000000000000, 4.00000000000000000000, 4.00000000000000000000, 4.00000000000000000000, 4.00000000000000000000, 4.00000000000000000000, 4.00000000000000000000, 4.00000000000000000000, 1670.00000000000000000000, 1679.00000000000000000000, 0.00000000000000000000
23.00000000000000000000, 0.00000000000000000000, 4269.23066483447110000000, 4428.20501992140000000000, 4350.25630387877660000000, 5004.10244173630870000000, 4245.12810132129110000000, 4311.79476635774520000000, 3956.92298016369700000000, 4381.02553389560220000000, 4468.20501894327300000000, 4815.38449763311470000000, 4213.84605080418620000000, 4051.28195221529360000000, 4073.33323372735140000000, 4441.53835292869100000000, 0.00000000000000000000, 4.00000000000000000000, 4.00000000000000000000, 4.00000000000000000000, 4.00000000000000000000, 4.00000000000000000000, 4.00000000000000000000, 4.00000000000000000000, 4.00000000000000000000, 4.00000000000000000000, 4.00000000000000000000, 4.00000000000000000000, 4.00000000000000000000, 4.00000000000000000000, 4.00000000000000000000, 4.00000000000000000000, 4.00000000000000000000, 1669.00000000000000000000, 1679.00000000000000000000, 0.00000000000000000000
24.00000000000000000000, 0.00000000000000000000, 4269.74348533475130000000, 4428.71784042168020000000, 4350.25630387877660000000, 4999.99987773406520000000, 4248.71784482325440000000, 4312.30758685802630000000, 3949.23067265949070000000, 4372.30758539083490000000, 4461.02553193934640000000, 4810.76911313059100000000, 4207.17938430054070000000, 4046.15374721248960000000, 4069.74349022538850000000, 4442.05117342897120000000, 0.00000000000000000000, 4.00000000000000000000, 4.00000000000000000000, 4.00000000000000000000, 4.00000000000000000000, 4.00000000000000000000, 4.00000000000000000000, 4.00000000000000000000, 4.00000000000000000000, 4.00000000000000000000, 4.00000000000000000000, 4.00000000000000000000, 4.00000000000000000000, 4.00000000000000000000, 4.00000000000000000000, 4.00000000000000000000, 4.00000000000000000000, 1670.00000000000000000000, 1679.00000000000000000000, 0.00000000000000000000
25.00000000000000000000, 0.00000000000000000000, 4264.61528033194740000000, 4429.74348142224150000000, 4350.76912437905680000000, 4995.89731373182170000000, 4250.76912682437610000000, 4312.82040735830650000000, 3946.15374965780800000000, 4375.38450839251710000000, 4469.74348044411360000000, 4808.20501062918900000000, 4201.53835879745570000000, 4046.15374721248960000000, 4066.15374672342570000000, 4432.30758392364350000000, 0.00000000000000000000, 4.00000000000000000000, 4.00000000000000000000, 4.00000000000000000000, 4.00000000000000000000, 4.00000000000000000000, 4.00000000000000000000, 4.00000000000000000000, 4.00000000000000000000, 4.00000000000000000000, 4.00000000000000000000, 4.00000000000000000000, 4.00000000000000000000, 4.00000000000000000000, 4.00000000000000000000, 4.00000000000000000000, 4.00000000000000000000, 1670.00000000000000000000, 1680.00000000000000000000, 0.00000000000000000000
26.00000000000000000000, 0.00000000000000000000, 4261.53835733026430000000, 4427.17937892083960000000, 4345.64091937625290000000, 4992.30757022985840000000, 4243.07681932016930000000, 4307.17938185522140000000, 3952.30759566117330000000, 4380.51271339532100000000, 4472.30758294551560000000, 4812.82039513171280000000, 4199.99989729661500000000, 4050.76913171501340000000, 4067.69220822426720000000, 4427.69219942111980000000, 0.00000000000000000000, 4.00000000000000000000, 4.00000000000000000000, 4.00000000000000000000, 4.00000000000000000000, 4.00000000000000000000, 4.00000000000000000000, 4.00000000000000000000, 4.00000000000000000000, 4.00000000000000000000, 4.00000000000000000000, 4.00000000000000000000, 4.00000000000000000000, 4.00000000000000000000, 4.00000000000000000000, 4.00000000000000000000, 4.00000000000000000000, 1671.00000000000000000000, 1679.00000000000000000000, 0.00000000000000000000
27.00000000000000000000, 0.00000000000000000000, 4262.05117783054540000000, 4423.58963541887620000000, 4341.53835537400940000000, 4994.35885223098010000000, 4232.30758881428120000000, 4296.41015134933330000000, 3952.82041616145350000000, 4375.89732889279730000000, 4458.97424993822550000000, 4811.79475413115230000000, 4207.69220480082090000000, 4049.74349071445250000000, 4071.28195172623010000000, 4431.28194292308220000000, 0.00000000000000000000, 4.00000000000000000000, 4.00000000000000000000, 4.00000000000000000000, 4.00000000000000000000, 4.00000000000000000000, 4.00000000000000000000, 4.00000000000000000000, 4.00000000000000000000, 4.00000000000000000000, 4.00000000000000000000, 4.00000000000000000000, 4.00000000000000000000, 4.00000000000000000000, 4.00000000000000000000, 4.00000000000000000000, 4.00000000000000000000, 1669.00000000000000000000, 1681.00000000000000000000, 0.00000000000000000000
28.00000000000000000000, 0.00000000000000000000, 4267.17938283334930000000, 4429.74348142224150000000, 4351.28194487933800000000, 5004.61526223658890000000, 4239.99989631848710000000, 4294.35886934821160000000, 3953.84605716201440000000, 4378.46143139419930000000, 4455.38450643626220000000, 4814.87167713283450000000, 4217.43579430614860000000, 4051.28195221529360000000, 4076.92297722931470000000, 4441.53835292869100000000, 0.00000000000000000000, 4.00000000000000000000, 4.00000000000000000000, 4.00000000000000000000, 4.00000000000000000000, 4.00000000000000000000, 4.00000000000000000000, 4.00000000000000000000, 4.00000000000000000000, 4.00000000000000000000, 4.00000000000000000000, 4.00000000000000000000, 4.00000000000000000000, 4.00000000000000000000, 4.00000000000000000000, 4.00000000000000000000, 4.00000000000000000000, 1671.00000000000000000000, 1682.00000000000000000000, 0.00000000000000000000
29.00000000000000000000, 0.00000000000000000000, 4273.33322883671460000000, 4434.87168642504550000000, 4359.48707288382410000000, 5008.20500573855130000000, 4247.69220382269300000000, 4299.99989485129570000000, 3961.53836466622080000000, 4384.61527739756460000000, 4470.76912144467500000000, 4825.64090763872350000000, 4217.43579430614860000000, 4057.43579821865890000000, 4077.43579772959490000000, 4446.15373743121470000000, 0.00000000000000000000, 4.00000000000000000000, 4.00000000000000000000, 4.00000000000000000000, 4.00000000000000000000, 4.00000000000000000000, 4.00000000000000000000, 4.00000000000000000000, 4.00000000000000000000, 4.00000000000000000000, 4.00000000000000000000, 4.00000000000000000000, 4.00000000000000000000, 4.00000000000000000000, 4.00000000000000000000, 4.00000000000000000000, 4.00000000000000000000, 1671.00000000000000000000, 1680.00000000000000000000, 0.00000000000000000000
30.00000000000000000000, 0.00000000000000000000, 4271.28194683559290000000, 4427.17937892083960000000, 4355.38450888158060000000, 5002.05115973518700000000, 4236.92297331680490000000, 4299.99989485129570000000, 3957.94862116425790000000, 4377.94861089391910000000, 4477.43578794832050000000, 4821.53834363648000000000, 4213.84605080418620000000, 4054.87169571725640000000, 4068.71784922482770000000, 4433.84604542448510000000, 0.00000000000000000000, 4.00000000000000000000, 4.00000000000000000000, 4.00000000000000000000, 4.00000000000000000000, 4.00000000000000000000, 4.00000000000000000000, 4.00000000000000000000, 4.00000000000000000000, 4.00000000000000000000, 4.00000000000000000000, 4.00000000000000000000, 4.00000000000000000000, 4.00000000000000000000, 4.00000000000000000000, 4.00000000000000000000, 4.00000000000000000000, 1670.00000000000000000000, 1682.00000000000000000000, 0.00000000000000000000
31.00000000000000000000, 0.00000000000000000000, 4267.69220333362950000000, 4422.05117391803470000000, 4350.25630387877660000000, 4997.94859573294340000000, 4229.74348631287920000000, 4297.43579234989370000000, 3946.15374965780800000000, 4370.76912388999340000000, 4465.64091644187010000000, 4806.66654912834750000000, 4213.84605080418620000000, 4046.15374721248960000000, 4066.66656722370640000000, 4426.15373792027820000000, 0.00000000000000000000, 4.00000000000000000000, 4.00000000000000000000, 4.00000000000000000000, 4.00000000000000000000, 4.00000000000000000000, 4.00000000000000000000, 4.00000000000000000000, 4.00000000000000000000, 4.00000000000000000000, 4.00000000000000000000, 4.00000000000000000000, 4.00000000000000000000, 4.00000000000000000000, 4.00000000000000000000, 4.00000000000000000000, 4.00000000000000000000, 1672.00000000000000000000, 1681.00000000000000000000, 0.00000000000000000000
32.00000000000000000000, 0.00000000000000000000, 4257.94861382830190000000, 4409.74348191130500000000, 4338.97425287260740000000, 4985.64090372621380000000, 4232.30758881428120000000, 4294.87168984849180000000, 3943.07682665612580000000, 4370.25630338971310000000, 4457.43578843738400000000, 4794.87167762189800000000, 4203.07682029829720000000, 4038.97426020856350000000, 4054.87169571725640000000, 4419.48707141663270000000, 0.00000000000000000000, 4.00000000000000000000, 4.00000000000000000000, 4.00000000000000000000, 4.00000000000000000000, 4.00000000000000000000, 4.00000000000000000000, 4.00000000000000000000, 4.00000000000000000000, 4.00000000000000000000, 4.00000000000000000000, 4.00000000000000000000, 4.00000000000000000000, 4.00000000000000000000, 4.00000000000000000000, 4.00000000000000000000, 4.00000000000000000000, 1671.00000000000000000000, 1683.00000000000000000000, 0.00000000000000000000
33.00000000000000000000, 0.00000000000000000000, 4245.12810132129110000000, 4389.23066190008830000000, 4326.15374036559750000000, 4972.82039121920300000000, 4225.64092231063570000000, 4293.84604884793040000000, 3944.61528815696690000000, 4369.23066238915180000000, 4458.46142943794440000000, 4792.82039562077630000000, 4187.69220528988440000000, 4032.30759370491840000000, 4033.33323470547930000000, 4405.12809740878130000000, 0.00000000000000000000, 4.00000000000000000000, 4.00000000000000000000, 4.00000000000000000000, 4.00000000000000000000, 4.00000000000000000000, 4.00000000000000000000, 4.00000000000000000000, 4.00000000000000000000, 4.00000000000000000000, 4.00000000000000000000, 4.00000000000000000000, 4.00000000000000000000, 4.00000000000000000000, 4.00000000000000000000, 4.00000000000000000000, 4.00000000000000000000, 1672.00000000000000000000, 1681.00000000000000000000, 0.00000000000000000000
34.00000000000000000000, 0.00000000000000000000, 4248.71784482325440000000, 4401.02553340653780000000, 4330.76912486812130000000, 4984.61526272565240000000, 4227.69220431175750000000, 4303.07681785297880000000, 3945.64092915752780000000, 4372.30758539083490000000, 4466.15373694215120000000, 4804.61526712722570000000, 4193.84605129324970000000, 4034.35887570603970000000, 4043.58964471108720000000, 4408.20502041046350000000, 0.00000000000000000000, 4.00000000000000000000, 4.00000000000000000000, 4.00000000000000000000, 4.00000000000000000000, 4.00000000000000000000, 4.00000000000000000000, 4.00000000000000000000, 4.00000000000000000000, 4.00000000000000000000, 4.00000000000000000000, 4.00000000000000000000, 4.00000000000000000000, 4.00000000000000000000, 4.00000000000000000000, 4.00000000000000000000, 4.00000000000000000000, 1673.00000000000000000000, 1681.00000000000000000000, 0.00000000000000000000
35.00000000000000000000, 0.00000000000000000000, 4254.87169082661880000000, 4425.12809691971780000000, 4335.89732987092520000000, 4997.94859573294340000000, 4239.99989631848710000000, 4310.76912535718470000000, 3947.69221115864960000000, 4375.89732889279730000000, 4475.38450594719870000000, 4813.84603613227410000000, 4204.10246129885760000000, 4036.41015770716150000000, 4064.10246472230390000000, 4414.87168691410900000000, 0.00000000000000000000, 4.00000000000000000000, 4.00000000000000000000, 4.00000000000000000000, 4.00000000000000000000, 4.00000000000000000000, 4.00000000000000000000, 4.00000000000000000000, 4.00000000000000000000, 4.00000000000000000000, 4.00000000000000000000, 4.00000000000000000000, 4.00000000000000000000, 4.00000000000000000000, 4.00000000000000000000, 4.00000000000000000000, 4.00000000000000000000, 1673.00000000000000000000, 1681.00000000000000000000, 0.00000000000000000000
36.00000000000000000000, 0.00000000000000000000, 4246.66656282213260000000, 4415.38450741439010000000, 4324.61527886475600000000, 4989.23064722817620000000, 4242.05117831960890000000, 4307.17938185522140000000, 3946.66657015808870000000, 4371.28194439027360000000, 4472.82040344579670000000, 4808.71783112946920000000, 4198.46143579577350000000, 4028.71785020295560000000, 4053.33323421641530000000, 4399.48707190569710000000, 0.00000000000000000000, 4.00000000000000000000, 4.00000000000000000000, 4.00000000000000000000, 4.00000000000000000000, 4.00000000000000000000, 4.00000000000000000000, 4.00000000000000000000, 4.00000000000000000000, 4.00000000000000000000, 4.00000000000000000000, 4.00000000000000000000, 4.00000000000000000000, 4.00000000000000000000, 4.00000000000000000000, 4.00000000000000000000, 4.00000000000000000000, 1672.00000000000000000000, 1681.00000000000000000000, 0.00000000000000000000
37.00000000000000000000, 0.00000000000000000000, 4245.12810132129110000000, 4411.28194341214660000000, 4322.56399686363420000000, 4985.64090372621380000000, 4244.61528082101090000000, 4306.66656135494120000000, 3949.74349315977130000000, 4367.69220088831120000000, 4468.71783944355320000000, 4805.12808762750680000000, 4196.92297429493190000000, 4027.17938870211400000000, 4047.69220871333070000000, 4394.35886690289230000000, 0.00000000000000000000, 4.00000000000000000000, 4.00000000000000000000, 4.00000000000000000000, 4.00000000000000000000, 4.00000000000000000000, 4.00000000000000000000, 4.00000000000000000000, 4.00000000000000000000, 4.00000000000000000000, 4.00000000000000000000, 4.00000000000000000000, 4.00000000000000000000, 4.00000000000000000000, 4.00000000000000000000, 4.00000000000000000000, 4.00000000000000000000, 1674.00000000000000000000, 1682.00000000000000000000, 0.00000000000000000000
38.00000000000000000000, 0.00000000000000000000, 4252.82040882549790000000, 4431.28194292308220000000, 4333.33322736952320000000, 4995.89731373182170000000, 4246.15374232185240000000, 4311.79476635774520000000, 3957.43580066397730000000, 4372.82040589111510000000, 4472.82040344579670000000, 4813.33321563199300000000, 4202.05117929773590000000, 4034.35887570603970000000, 4064.61528522258460000000, 4408.71784091074460000000, 0.00000000000000000000, 4.00000000000000000000, 4.00000000000000000000, 4.00000000000000000000, 4.00000000000000000000, 4.00000000000000000000, 4.00000000000000000000, 4.00000000000000000000, 4.00000000000000000000, 4.00000000000000000000, 4.00000000000000000000, 4.00000000000000000000, 4.00000000000000000000, 4.00000000000000000000, 4.00000000000000000000, 4.00000000000000000000, 4.00000000000000000000, 1672.00000000000000000000, 1682.00000000000000000000, 0.00000000000000000000
39.00000000000000000000, 0.00000000000000000000, 4250.25630632409500000000, 4428.71784042168020000000, 4335.89732987092520000000, 4996.41013423210190000000, 4236.41015281652380000000, 4303.58963835325900000000, 3950.76913416033180000000, 4373.84604689167550000000, 4468.20501894327300000000, 4812.30757463143250000000, 4198.46143579577350000000, 4035.89733720688130000000, 4061.02554172062170000000, 4411.79476391242680000000, 0.00000000000000000000, 4.00000000000000000000, 4.00000000000000000000, 4.00000000000000000000, 4.00000000000000000000, 4.00000000000000000000, 4.00000000000000000000, 4.00000000000000000000, 4.00000000000000000000, 4.00000000000000000000, 4.00000000000000000000, 4.00000000000000000000, 4.00000000000000000000, 4.00000000000000000000, 4.00000000000000000000, 4.00000000000000000000, 4.00000000000000000000, 1673.00000000000000000000, 1683.00000000000000000000, 0.00000000000000000000
40.00000000000000000000, 0.00000000000000000000, 4248.71784482325440000000, 4417.43578941551100000000, 4332.82040686924300000000, 4991.79474972957810000000, 4232.30758881428120000000, 4294.87168984849180000000, 3941.53836515528430000000, 4371.28194439027360000000, 4454.87168593598200000000, 4802.05116462582370000000, 4197.43579479521210000000, 4034.87169620632040000000, 4049.23067021417180000000, 4410.25630241158520000000, 0.00000000000000000000, 4.00000000000000000000, 4.00000000000000000000, 4.00000000000000000000, 4.00000000000000000000, 4.00000000000000000000, 4.00000000000000000000, 4.00000000000000000000, 4.00000000000000000000, 4.00000000000000000000, 4.00000000000000000000, 4.00000000000000000000, 4.00000000000000000000, 4.00000000000000000000, 4.00000000000000000000, 4.00000000000000000000, 4.00000000000000000000, 1671.00000000000000000000, 1683.00000000000000000000, 0.00000000000000000000
41.00000000000000000000, 0.00000000000000000000, 4256.41015232746030000000, 4425.12809691971780000000, 4333.84604786980340000000, 4991.79474972957810000000, 4235.89733231624360000000, 4302.05117685241750000000, 3951.28195466061240000000, 4371.79476489055470000000, 4455.38450643626220000000, 4801.53834412554350000000, 4201.02553829717540000000, 4034.87169620632040000000, 4055.89733671781730000000, 4412.82040491298720000000, 0.00000000000000000000, 4.00000000000000000000, 4.00000000000000000000, 4.00000000000000000000, 4.00000000000000000000, 4.00000000000000000000, 4.00000000000000000000, 4.00000000000000000000, 4.00000000000000000000, 4.00000000000000000000, 4.00000000000000000000, 4.00000000000000000000, 4.00000000000000000000, 4.00000000000000000000, 4.00000000000000000000, 4.00000000000000000000, 4.00000000000000000000, 1671.00000000000000000000, 1684.00000000000000000000, 0.00000000000000000000
42.00000000000000000000, 0.00000000000000000000, 4261.53835733026430000000, 4429.23066092196130000000, 4336.41015037120540000000, 4994.87167273126120000000, 4238.97425531792670000000, 4310.76912535718470000000, 3960.51272366565990000000, 4373.33322639139530000000, 4466.66655744243140000000, 4808.71783112946920000000, 4197.94861529549330000000, 4034.87169620632040000000, 4059.48708021978020000000, 4414.35886641382880000000, 0.00000000000000000000, 4.00000000000000000000, 4.00000000000000000000, 4.00000000000000000000, 4.00000000000000000000, 4.00000000000000000000, 4.00000000000000000000, 4.00000000000000000000, 4.00000000000000000000, 4.00000000000000000000, 4.00000000000000000000, 4.00000000000000000000, 4.00000000000000000000, 4.00000000000000000000, 4.00000000000000000000, 4.00000000000000000000, 4.00000000000000000000, 1671.00000000000000000000, 1682.00000000000000000000, 0.00000000000000000000
43.00000000000000000000, 0.00000000000000000000, 4263.07681883110580000000, 4428.71784042168020000000, 4342.05117587429050000000, 5000.51269823434540000000, 4245.12810132129110000000, 4311.79476635774520000000, 3958.97426216481880000000, 4378.46143139419930000000, 4475.89732644747890000000, 4813.33321563199300000000, 4202.05117929773590000000, 4041.02554220968520000000, 4062.05118272118260000000, 4421.53835341775450000000, 0.00000000000000000000, 4.00000000000000000000, 4.00000000000000000000, 4.00000000000000000000, 4.00000000000000000000, 4.00000000000000000000, 4.00000000000000000000, 4.00000000000000000000, 4.00000000000000000000, 4.00000000000000000000, 4.00000000000000000000, 4.00000000000000000000, 4.00000000000000000000, 4.00000000000000000000, 4.00000000000000000000, 4.00000000000000000000, 4.00000000000000000000, 1669.00000000000000000000, 1683.00000000000000000000, 0.00000000000000000000
44.00000000000000000000, 0.00000000000000000000, 4263.07681883110580000000, 4431.28194292308220000000, 4341.02553487372920000000, 5000.51269823434540000000, 4251.28194732465640000000, 4311.79476635774520000000, 3957.43580066397730000000, 4380.51271339532100000000, 4475.38450594719870000000, 4811.79475413115230000000, 4211.79476880306450000000, 4046.15374721248960000000, 4066.15374672342570000000, 4424.10245591915650000000, 0.00000000000000000000, 4.00000000000000000000, 4.00000000000000000000, 4.00000000000000000000, 4.00000000000000000000, 4.00000000000000000000, 4.00000000000000000000, 4.00000000000000000000, 4.00000000000000000000, 4.00000000000000000000, 4.00000000000000000000, 4.00000000000000000000, 4.00000000000000000000, 4.00000000000000000000, 4.00000000000000000000, 4.00000000000000000000, 4.00000000000000000000, 1670.00000000000000000000, 1682.00000000000000000000, 0.00000000000000000000
45.00000000000000000000, 0.00000000000000000000, 4262.56399833082560000000, 4428.71784042168020000000, 4335.89732987092520000000, 4995.89731373182170000000, 4249.23066532353460000000, 4311.79476635774520000000, 3951.79477516089260000000, 4371.79476489055470000000, 4466.66655744243140000000, 4810.76911313059100000000, 4206.15374329997940000000, 4038.46143970828330000000, 4059.48708021978020000000, 4413.84604591354860000000, 0.00000000000000000000, 4.00000000000000000000, 4.00000000000000000000, 4.00000000000000000000, 4.00000000000000000000, 4.00000000000000000000, 4.00000000000000000000, 4.00000000000000000000, 4.00000000000000000000, 4.00000000000000000000, 4.00000000000000000000, 4.00000000000000000000, 4.00000000000000000000, 4.00000000000000000000, 4.00000000000000000000, 4.00000000000000000000, 4.00000000000000000000, 1669.00000000000000000000, 1683.00000000000000000000, 0.00000000000000000000
46.00000000000000000000, 0.00000000000000000000, 4259.99989582942360000000, 4427.69219942111980000000, 4332.82040686924300000000, 4997.43577523266320000000, 4245.64092182157130000000, 4310.25630485690450000000, 3948.20503165892980000000, 4368.20502138859140000000, 4466.66655744243140000000, 4810.76911313059100000000, 4196.41015379465170000000, 4032.82041420519860000000, 4054.35887521697620000000, 4410.25630241158520000000, 0.00000000000000000000, 4.00000000000000000000, 4.00000000000000000000, 4.00000000000000000000, 4.00000000000000000000, 4.00000000000000000000, 4.00000000000000000000, 4.00000000000000000000, 4.00000000000000000000, 4.00000000000000000000, 4.00000000000000000000, 4.00000000000000000000, 4.00000000000000000000, 4.00000000000000000000, 4.00000000000000000000, 4.00000000000000000000, 4.00000000000000000000, 1669.00000000000000000000, 1683.00000000000000000000, 0.00000000000000000000
47.00000000000000000000, 0.00000000000000000000, 4254.87169082661880000000, 4431.79476342336330000000, 4329.74348386755990000000, 4996.92295473238210000000, 4247.17938332241280000000, 4310.25630485690450000000, 3956.92298016369700000000, 4378.46143139419930000000, 4473.84604444635720000000, 4814.35885663255430000000, 4201.02553829717540000000, 4038.46143970828330000000, 4062.05118272118260000000, 4413.84604591354860000000, 0.00000000000000000000, 4.00000000000000000000, 4.00000000000000000000, 4.00000000000000000000, 4.00000000000000000000, 4.00000000000000000000, 4.00000000000000000000, 4.00000000000000000000, 4.00000000000000000000, 4.00000000000000000000, 4.00000000000000000000, 4.00000000000000000000, 4.00000000000000000000, 4.00000000000000000000, 4.00000000000000000000, 4.00000000000000000000, 4.00000000000000000000, 1669.00000000000000000000, 1683.00000000000000000000, 0.00000000000000000000
48.00000000000000000000, 0.00000000000000000000, 4249.23066532353460000000, 4429.23066092196130000000, 4327.17938136615790000000, 4991.79474972957810000000, 4247.69220382269300000000, 4312.30758685802630000000, 3961.02554416594010000000, 4384.61527739756460000000, 4472.82040344579670000000, 4816.41013863367610000000, 4203.58964079857740000000, 4038.97426020856350000000, 4064.10246472230390000000, 4410.25630241158520000000, 0.00000000000000000000, 4.00000000000000000000, 4.00000000000000000000, 4.00000000000000000000, 4.00000000000000000000, 4.00000000000000000000, 4.00000000000000000000, 4.00000000000000000000, 4.00000000000000000000, 4.00000000000000000000, 4.00000000000000000000, 4.00000000000000000000, 4.00000000000000000000, 4.00000000000000000000, 4.00000000000000000000, 4.00000000000000000000, 4.00000000000000000000, 1669.00000000000000000000, 1683.00000000000000000000, 0.00000000000000000000
49.00000000000000000000, 0.00000000000000000000, 4248.20502432297420000000, 4426.15373792027820000000, 4329.23066336727970000000, 4992.30757022985840000000, 4247.17938332241280000000, 4312.82040735830650000000, 3957.94862116425790000000, 4385.64091839812590000000, 4470.76912144467500000000, 4812.30757463143250000000, 4199.48707679633390000000, 4035.89733720688130000000, 4056.92297771837820000000, 4410.76912291186640000000, 0.00000000000000000000, 4.00000000000000000000, 4.00000000000000000000, 4.00000000000000000000, 4.00000000000000000000, 4.00000000000000000000, 4.00000000000000000000, 4.00000000000000000000, 4.00000000000000000000, 4.00000000000000000000, 4.00000000000000000000, 4.00000000000000000000, 4.00000000000000000000, 4.00000000000000000000, 4.00000000000000000000, 4.00000000000000000000, 4.00000000000000000000, 1669.00000000000000000000, 1684.00000000000000000000, 0.00000000000000000000
