title:                                                                                , recorded:16.08.19 14.41.15, sampling:128, subject:                                                                                , labels:COUNTER INTERPOLATED AF3 F7 F3 FC5 T7 P7 O1 O2 P8 T8 FC6 F4 F8 AF4 RAW_CQ CQ_AF3 CQ_F7 CQ_F3 CQ_FC5 CQ_T7 CQ_P7 CQ_O1 CQ_O2 CQ_P8 CQ_T8 CQ_FC6 CQ_F4 CQ_F8 CQ_AF4 CQ_CMS CQ_DRL GYROX GYROY MARKER, chan:36, units:emotiv
55.00000000000000000000, 0.00000000000000000000, 4311.79476635774520000000, 4455.38450643626220000000, 4397.94861040485560000000, 5008.20500573855130000000, 4311.28194585746500000000, 4346.66656037681420000000, 4072.82041322707120000000, 4433.84604542448510000000, 4468.20501894327300000000, 4815.89731813339490000000, 4229.74348631287920000000, 4065.64092622314550000000, 4097.94861774081160000000, 4412.30758441270700000000, 0.00000000000000000000, 4.00000000000000000000, 4.00000000000000000000, 4.00000000000000000000, 4.00000000000000000000, 4.00000000000000000000, 3.00000000000000000000, 4.00000000000000000000, 4.00000000000000000000, 4.00000000000000000000, 4.00000000000000000000, 4.00000000000000000000, 4.00000000000000000000, 4.00000000000000000000, 4.00000000000000000000, 4.00000000000000000000, 4.00000000000000000000, 1677.00000000000000000000, 1679.00000000000000000000, 0.00000000000000000000
56.00000000000000000000, 0.00000000000000000000, 4328.71784286699950000000, 4470.76912144467500000000, 4413.33322541326830000000, 5023.07680024668390000000, 4313.84604835886690000000, 4353.84604738073990000000, 4078.46143873015580000000, 4446.15373743121470000000, 4483.58963395168480000000, 4824.10244613788200000000, 4251.79476782493660000000, 4084.61528473352060000000, 4120.51271975315010000000, 4431.79476342336330000000, 0.00000000000000000000, 4.00000000000000000000, 4.00000000000000000000, 4.00000000000000000000, 4.00000000000000000000, 4.00000000000000000000, 3.00000000000000000000, 4.00000000000000000000, 4.00000000000000000000, 4.00000000000000000000, 4.00000000000000000000, 4.00000000000000000000, 4.00000000000000000000, 4.00000000000000000000, 4.00000000000000000000, 4.00000000000000000000, 4.00000000000000000000, 1679.00000000000000000000, 1678.00000000000000000000, 0.00000000000000000000
57.00000000000000000000, 0.00000000000000000000, 4340.51271437344890000000, 4483.58963395168480000000, 4421.02553291747430000000, 5034.35885125285310000000, 4326.66656086587770000000, 4356.92297038242210000000, 4080.51272073127760000000, 4459.48707043850570000000, 4496.92296695897580000000, 4836.92295864489280000000, 4264.10245983166710000000, 4100.51272024221360000000, 4138.46143726296490000000, 4448.20501943233650000000, 0.00000000000000000000, 4.00000000000000000000, 4.00000000000000000000, 4.00000000000000000000, 4.00000000000000000000, 4.00000000000000000000, 3.00000000000000000000, 4.00000000000000000000, 4.00000000000000000000, 4.00000000000000000000, 4.00000000000000000000, 4.00000000000000000000, 4.00000000000000000000, 4.00000000000000000000, 4.00000000000000000000, 4.00000000000000000000, 4.00000000000000000000, 1677.00000000000000000000, 1678.00000000000000000000, 0.00000000000000000000
58.00000000000000000000, 0.00000000000000000000, 4325.64091986531640000000, 4469.23065994383340000000, 4409.23066141102480000000, 5020.51269774528190000000, 4322.05117636335400000000, 4357.94861138298260000000, 4078.97425923043600000000, 4461.53835243962750000000, 4491.28194145589170000000, 4832.30757414236900000000, 4245.12810132129110000000, 4087.17938723492310000000, 4119.99989925286990000000, 4431.28194292308220000000, 0.00000000000000000000, 4.00000000000000000000, 4.00000000000000000000, 4.00000000000000000000, 4.00000000000000000000, 4.00000000000000000000, 3.00000000000000000000, 4.00000000000000000000, 4.00000000000000000000, 4.00000000000000000000, 4.00000000000000000000, 4.00000000000000000000, 4.00000000000000000000, 4.00000000000000000000, 4.00000000000000000000, 4.00000000000000000000, 4.00000000000000000000, 1676.00000000000000000000, 1680.00000000000000000000, 0.00000000000000000000
59.00000000000000000000, 0.00000000000000000000, 4309.74348435662340000000, 4451.28194243401870000000, 4399.99989240597730000000, 5009.23064673911270000000, 4309.23066385634320000000, 4357.94861138298260000000, 4075.89733622875380000000, 4451.79476293429890000000, 4488.20501845420860000000, 4817.43577963423650000000, 4229.74348631287920000000, 4070.25631072566920000000, 4098.46143824109190000000, 4413.84604591354860000000, 0.00000000000000000000, 4.00000000000000000000, 4.00000000000000000000, 4.00000000000000000000, 4.00000000000000000000, 4.00000000000000000000, 3.00000000000000000000, 4.00000000000000000000, 4.00000000000000000000, 4.00000000000000000000, 4.00000000000000000000, 4.00000000000000000000, 4.00000000000000000000, 4.00000000000000000000, 4.00000000000000000000, 4.00000000000000000000, 4.00000000000000000000, 1674.00000000000000000000, 1680.00000000000000000000, 0.00000000000000000000
60.00000000000000000000, 0.00000000000000000000, 4310.25630485690450000000, 4452.82040393486020000000, 4398.97425140541600000000, 5011.28192874023440000000, 4307.69220235550260000000, 4349.23066287821620000000, 4070.25631072566920000000, 4442.56399392925140000000, 4489.23065945476990000000, 4816.92295913395630000000, 4231.79476831400010000000, 4067.17938772398660000000, 4097.43579724053140000000, 4414.35886641382880000000, 0.00000000000000000000, 4.00000000000000000000, 4.00000000000000000000, 4.00000000000000000000, 4.00000000000000000000, 4.00000000000000000000, 3.00000000000000000000, 4.00000000000000000000, 4.00000000000000000000, 4.00000000000000000000, 4.00000000000000000000, 4.00000000000000000000, 4.00000000000000000000, 4.00000000000000000000, 4.00000000000000000000, 4.00000000000000000000, 4.00000000000000000000, 1674.00000000000000000000, 1681.00000000000000000000, 0.00000000000000000000
61.00000000000000000000, 0.00000000000000000000, 4315.38450985970850000000, 4463.07681394046810000000, 4399.99989240597730000000, 5013.33321074135620000000, 4304.10245885353920000000, 4338.46143237232720000000, 4062.56400322146280000000, 4438.46142992700880000000, 4482.56399295112440000000, 4822.56398463704040000000, 4233.33322981484160000000, 4068.71784922482770000000, 4108.20502774641950000000, 4415.89732791467030000000, 0.00000000000000000000, 4.00000000000000000000, 4.00000000000000000000, 4.00000000000000000000, 4.00000000000000000000, 4.00000000000000000000, 3.00000000000000000000, 4.00000000000000000000, 4.00000000000000000000, 4.00000000000000000000, 4.00000000000000000000, 4.00000000000000000000, 4.00000000000000000000, 4.00000000000000000000, 4.00000000000000000000, 4.00000000000000000000, 4.00000000000000000000, 1671.00000000000000000000, 1682.00000000000000000000, 0.00000000000000000000
62.00000000000000000000, 0.00000000000000000000, 4312.82040735830650000000, 4459.48707043850570000000, 4395.89732840373380000000, 5007.69218523827110000000, 4297.43579234989370000000, 4337.94861187204700000000, 4063.07682372174350000000, 4437.43578892644750000000, 4474.87168544691850000000, 4815.38449763311470000000, 4228.71784531231790000000, 4067.17938772398660000000, 4105.12810474473740000000, 4412.30758441270700000000, 0.00000000000000000000, 4.00000000000000000000, 4.00000000000000000000, 4.00000000000000000000, 4.00000000000000000000, 4.00000000000000000000, 3.00000000000000000000, 4.00000000000000000000, 4.00000000000000000000, 4.00000000000000000000, 4.00000000000000000000, 4.00000000000000000000, 4.00000000000000000000, 4.00000000000000000000, 4.00000000000000000000, 4.00000000000000000000, 4.00000000000000000000, 1673.00000000000000000000, 1683.00000000000000000000, 0.00000000000000000000
63.00000000000000000000, 0.00000000000000000000, 4305.64092035438080000000, 4446.66655793149490000000, 4391.79476440149030000000, 5003.58962123602760000000, 4301.02553585185710000000, 4345.64091937625290000000, 4071.79477222651030000000, 4439.99989142784940000000, 4475.89732644747890000000, 4807.17936962862860000000, 4227.69220431175750000000, 4060.51272122034110000000, 4096.92297674025120000000, 4410.25630241158520000000, 0.00000000000000000000, 4.00000000000000000000, 4.00000000000000000000, 4.00000000000000000000, 4.00000000000000000000, 4.00000000000000000000, 3.00000000000000000000, 4.00000000000000000000, 4.00000000000000000000, 4.00000000000000000000, 4.00000000000000000000, 4.00000000000000000000, 4.00000000000000000000, 4.00000000000000000000, 4.00000000000000000000, 4.00000000000000000000, 4.00000000000000000000, 1671.00000000000000000000, 1683.00000000000000000000, 0.00000000000000000000
64.00000000000000000000, 0.00000000000000000000, 4307.69220235550260000000, 4448.71783993261670000000, 4396.41014890401400000000, 5006.66654423771070000000, 4309.74348435662340000000, 4350.76912437905680000000, 4074.35887472791230000000, 4445.12809643065430000000, 4478.97424944916110000000, 4811.28193363087120000000, 4231.79476831400010000000, 4060.51272122034110000000, 4102.56400224333540000000, 4414.87168691410900000000, 408.00000000000000000000, 4.00000000000000000000, 4.00000000000000000000, 4.00000000000000000000, 4.00000000000000000000, 4.00000000000000000000, 3.00000000000000000000, 4.00000000000000000000, 4.00000000000000000000, 4.00000000000000000000, 4.00000000000000000000, 4.00000000000000000000, 4.00000000000000000000, 4.00000000000000000000, 4.00000000000000000000, 4.00000000000000000000, 4.00000000000000000000, 1670.00000000000000000000, 1685.00000000000000000000, 0.00000000000000000000
65.00000000000000000000, 0.00000000000000000000, 4312.82040735830650000000, 4457.94860893766420000000, 4398.46143090513580000000, 5009.74346723939290000000, 4306.66656135494120000000, 4349.74348337849640000000, 4073.33323372735140000000, 4440.51271192813060000000, 4476.92296744803930000000, 4811.79475413115230000000, 4231.28194781371990000000, 4063.07682372174350000000, 4105.64092524501760000000, 4416.92296891523070000000, 444.00000000000000000000, 4.00000000000000000000, 4.00000000000000000000, 4.00000000000000000000, 4.00000000000000000000, 4.00000000000000000000, 3.00000000000000000000, 4.00000000000000000000, 4.00000000000000000000, 4.00000000000000000000, 4.00000000000000000000, 4.00000000000000000000, 4.00000000000000000000, 4.00000000000000000000, 4.00000000000000000000, 4.00000000000000000000, 4.00000000000000000000, 1671.00000000000000000000, 1685.00000000000000000000, 0.00000000000000000000
66.00000000000000000000, 0.00000000000000000000, 4313.84604835886690000000, 4455.89732693654240000000, 4397.94861040485560000000, 5009.74346723939290000000, 4304.61527935381950000000, 4348.71784237793510000000, 4072.82041322707120000000, 4431.79476342336330000000, 4480.51271095000270000000, 4808.20501062918900000000, 4230.76912731343960000000, 4061.02554172062170000000, 4101.02554074249380000000, 4414.87168691410900000000, 415.00000000000000000000, 4.00000000000000000000, 4.00000000000000000000, 4.00000000000000000000, 4.00000000000000000000, 4.00000000000000000000, 3.00000000000000000000, 4.00000000000000000000, 4.00000000000000000000, 4.00000000000000000000, 4.00000000000000000000, 4.00000000000000000000, 4.00000000000000000000, 4.00000000000000000000, 4.00000000000000000000, 4.00000000000000000000, 4.00000000000000000000, 1670.00000000000000000000, 1686.00000000000000000000, 0.00000000000000000000
67.00000000000000000000, 0.00000000000000000000, 4309.23066385634320000000, 4448.71783993261670000000, 4397.43578990457540000000, 5006.66654423771070000000, 4308.20502285578280000000, 4354.35886788102020000000, 4077.94861822987510000000, 4438.97425042728900000000, 4483.07681345140460000000, 4812.30757463143250000000, 4231.79476831400010000000, 4059.48708021978020000000, 4102.05118174305520000000, 4415.89732791467030000000, 453.00000000000000000000, 4.00000000000000000000, 4.00000000000000000000, 4.00000000000000000000, 4.00000000000000000000, 4.00000000000000000000, 3.00000000000000000000, 4.00000000000000000000, 4.00000000000000000000, 4.00000000000000000000, 4.00000000000000000000, 4.00000000000000000000, 4.00000000000000000000, 4.00000000000000000000, 4.00000000000000000000, 4.00000000000000000000, 4.00000000000000000000, 1670.00000000000000000000, 1684.00000000000000000000, 0.00000000000000000000
68.00000000000000000000, 0.00000000000000000000, 4297.94861285017400000000, 4442.56399392925140000000, 4387.17937989896650000000, 4996.92295473238210000000, 4300.51271535157590000000, 4355.38450888158060000000, 4079.99990023099690000000, 4443.58963492981270000000, 4479.99989044972240000000, 4813.33321563199300000000, 4224.10246080979410000000, 4052.82041371613510000000, 4097.43579724053140000000, 4406.15373840934260000000, 468.00000000000000000000, 4.00000000000000000000, 4.00000000000000000000, 4.00000000000000000000, 4.00000000000000000000, 4.00000000000000000000, 3.00000000000000000000, 4.00000000000000000000, 4.00000000000000000000, 4.00000000000000000000, 4.00000000000000000000, 4.00000000000000000000, 4.00000000000000000000, 4.00000000000000000000, 4.00000000000000000000, 4.00000000000000000000, 4.00000000000000000000, 1669.00000000000000000000, 1684.00000000000000000000, 0.00000000000000000000
69.00000000000000000000, 0.00000000000000000000, 4292.82040784737000000000, 4439.99989142784940000000, 4378.97425189448040000000, 4990.25628822873750000000, 4290.25630534596800000000, 4341.53835537400940000000, 4070.76913122594940000000, 4429.23066092196130000000, 4481.02553145028290000000, 4811.28193363087120000000, 4217.94861480642880000000, 4049.74349071445250000000, 4089.74348973632500000000, 4394.35886690289230000000, 330.00000000000000000000, 4.00000000000000000000, 4.00000000000000000000, 4.00000000000000000000, 4.00000000000000000000, 4.00000000000000000000, 3.00000000000000000000, 4.00000000000000000000, 4.00000000000000000000, 4.00000000000000000000, 4.00000000000000000000, 4.00000000000000000000, 4.00000000000000000000, 4.00000000000000000000, 4.00000000000000000000, 4.00000000000000000000, 4.00000000000000000000, 1671.00000000000000000000, 1683.00000000000000000000, 0.00000000000000000000
70.00000000000000000000, 0.00000000000000000000, 4295.38451034877200000000, 4443.58963492981270000000, 4383.07681589672300000000, 4992.30757022985840000000, 4294.35886934821160000000, 4337.43579137176680000000, 4069.74349022538850000000, 4426.15373792027820000000, 4483.07681345140460000000, 4812.82039513171280000000, 4222.05117880867240000000, 4059.48708021978020000000, 4093.84605373856810000000, 4399.48707190569710000000, 452.00000000000000000000, 4.00000000000000000000, 4.00000000000000000000, 4.00000000000000000000, 4.00000000000000000000, 4.00000000000000000000, 3.00000000000000000000, 4.00000000000000000000, 4.00000000000000000000, 4.00000000000000000000, 4.00000000000000000000, 4.00000000000000000000, 4.00000000000000000000, 4.00000000000000000000, 4.00000000000000000000, 4.00000000000000000000, 4.00000000000000000000, 1670.00000000000000000000, 1682.00000000000000000000, 0.00000000000000000000
71.00000000000000000000, 0.00000000000000000000, 4294.87168984849180000000, 4444.10245543009300000000, 4385.64091839812590000000, 4994.87167273126120000000, 4297.43579234989370000000, 4348.71784237793510000000, 4078.46143873015580000000, 4438.46142992700880000000, 4473.84604444635720000000, 4811.79475413115230000000, 4219.48707630727040000000, 4061.02554172062170000000, 4094.87169473912900000000, 4405.12809740878130000000, 422.00000000000000000000, 4.00000000000000000000, 4.00000000000000000000, 4.00000000000000000000, 4.00000000000000000000, 4.00000000000000000000, 3.00000000000000000000, 4.00000000000000000000, 4.00000000000000000000, 4.00000000000000000000, 4.00000000000000000000, 4.00000000000000000000, 4.00000000000000000000, 4.00000000000000000000, 4.00000000000000000000, 4.00000000000000000000, 4.00000000000000000000, 1671.00000000000000000000, 1682.00000000000000000000, 0.00000000000000000000
72.00000000000000000000, 0.00000000000000000000, 4297.94861285017400000000, 4441.53835292869100000000, 4382.56399539644280000000, 4997.43577523266320000000, 4294.35886934821160000000, 4350.76912437905680000000, 4076.41015672903400000000, 4441.53835292869100000000, 4470.25630094439480000000, 4809.23065162974940000000, 4217.94861480642880000000, 4052.30759321585450000000, 4090.76913073688590000000, 4401.53835390681890000000, 370.00000000000000000000, 4.00000000000000000000, 4.00000000000000000000, 4.00000000000000000000, 4.00000000000000000000, 4.00000000000000000000, 3.00000000000000000000, 4.00000000000000000000, 4.00000000000000000000, 4.00000000000000000000, 4.00000000000000000000, 4.00000000000000000000, 4.00000000000000000000, 4.00000000000000000000, 4.00000000000000000000, 4.00000000000000000000, 4.00000000000000000000, 1671.00000000000000000000, 1681.00000000000000000000, 0.00000000000000000000
73.00000000000000000000, 0.00000000000000000000, 4305.12809985409970000000, 4449.74348093317800000000, 4385.12809789784480000000, 4999.99987773406520000000, 4298.46143335045510000000, 4347.17938087709440000000, 4072.30759272679100000000, 4439.99989142784940000000, 4486.66655695336790000000, 4814.35885663255430000000, 4228.71784531231790000000, 4055.38451621753710000000, 4099.99989974193340000000, 4404.61527690850110000000, 413.00000000000000000000, 4.00000000000000000000, 4.00000000000000000000, 4.00000000000000000000, 4.00000000000000000000, 4.00000000000000000000, 3.00000000000000000000, 4.00000000000000000000, 4.00000000000000000000, 4.00000000000000000000, 4.00000000000000000000, 4.00000000000000000000, 4.00000000000000000000, 4.00000000000000000000, 4.00000000000000000000, 4.00000000000000000000, 4.00000000000000000000, 1673.00000000000000000000, 1681.00000000000000000000, 0.00000000000000000000
74.00000000000000000000, 0.00000000000000000000, 4300.51271535157590000000, 4453.33322443514040000000, 4387.17937989896650000000, 4997.43577523266320000000, 4301.53835635213730000000, 4350.25630387877660000000, 4068.71784922482770000000, 4444.10245543009300000000, 4490.25630045533030000000, 4819.99988213563850000000, 4232.30758881428120000000, 4058.97425971950000000000, 4108.20502774641950000000, 4408.71784091074460000000, 444.00000000000000000000, 4.00000000000000000000, 4.00000000000000000000, 4.00000000000000000000, 4.00000000000000000000, 4.00000000000000000000, 3.00000000000000000000, 4.00000000000000000000, 4.00000000000000000000, 4.00000000000000000000, 4.00000000000000000000, 4.00000000000000000000, 4.00000000000000000000, 4.00000000000000000000, 4.00000000000000000000, 4.00000000000000000000, 4.00000000000000000000, 1672.00000000000000000000, 1681.00000000000000000000, 0.00000000000000000000
75.00000000000000000000, 0.00000000000000000000, 4294.35886934821160000000, 4443.07681442953250000000, 4384.61527739756460000000, 4996.92295473238210000000, 4299.99989485129570000000, 4350.25630387877660000000, 4059.99990072006090000000, 4442.05117342897120000000, 4479.99989044972240000000, 4814.87167713283450000000, 4225.64092231063570000000, 4048.20502921361140000000, 4104.61528424445710000000, 4404.10245640822090000000, 400.00000000000000000000, 4.00000000000000000000, 4.00000000000000000000, 4.00000000000000000000, 4.00000000000000000000, 4.00000000000000000000, 3.00000000000000000000, 4.00000000000000000000, 4.00000000000000000000, 4.00000000000000000000, 4.00000000000000000000, 4.00000000000000000000, 4.00000000000000000000, 4.00000000000000000000, 4.00000000000000000000, 4.00000000000000000000, 4.00000000000000000000, 1672.00000000000000000000, 1682.00000000000000000000, 0.00000000000000000000
76.00000000000000000000, 0.00000000000000000000, 4299.99989485129570000000, 4446.15373743121470000000, 4388.71784139980810000000, 4998.97423673350390000000, 4302.05117685241750000000, 4347.17938087709440000000, 4063.58964422202370000000, 4437.94860942672770000000, 4482.56399295112440000000, 4814.87167713283450000000, 4228.71784531231790000000, 4048.71784971389160000000, 4103.07682274361560000000, 4405.12809740878130000000, 414.00000000000000000000, 4.00000000000000000000, 4.00000000000000000000, 4.00000000000000000000, 4.00000000000000000000, 4.00000000000000000000, 3.00000000000000000000, 4.00000000000000000000, 4.00000000000000000000, 4.00000000000000000000, 4.00000000000000000000, 4.00000000000000000000, 4.00000000000000000000, 4.00000000000000000000, 4.00000000000000000000, 4.00000000000000000000, 4.00000000000000000000, 1674.00000000000000000000, 1679.00000000000000000000, 0.00000000000000000000
77.00000000000000000000, 0.00000000000000000000, 4309.74348435662340000000, 4458.46142943794440000000, 4397.94861040485560000000, 5003.07680073574740000000, 4306.66656135494120000000, 4355.38450888158060000000, 4079.99990023099690000000, 4448.71783993261670000000, 4492.82040295673230000000, 4829.23065114068590000000, 4235.89733231624360000000, 4065.12810572286480000000, 4108.71784824670070000000, 4412.30758441270700000000, 398.00000000000000000000, 4.00000000000000000000, 4.00000000000000000000, 4.00000000000000000000, 4.00000000000000000000, 4.00000000000000000000, 3.00000000000000000000, 4.00000000000000000000, 4.00000000000000000000, 4.00000000000000000000, 4.00000000000000000000, 4.00000000000000000000, 4.00000000000000000000, 4.00000000000000000000, 4.00000000000000000000, 4.00000000000000000000, 4.00000000000000000000, 1672.00000000000000000000, 1680.00000000000000000000, 0.00000000000000000000
78.00000000000000000000, 0.00000000000000000000, 4316.41015086026890000000, 4461.53835243962750000000, 4400.51271290625750000000, 5007.69218523827110000000, 4310.25630485690450000000, 4359.48707288382410000000, 4076.92297722931470000000, 4454.87168593598200000000, 4492.82040295673230000000, 4830.76911264152750000000, 4234.87169131568320000000, 4068.20502872454740000000, 4111.79477124838290000000, 4414.87168691410900000000, 444.00000000000000000000, 4.00000000000000000000, 4.00000000000000000000, 4.00000000000000000000, 4.00000000000000000000, 4.00000000000000000000, 3.00000000000000000000, 4.00000000000000000000, 4.00000000000000000000, 4.00000000000000000000, 4.00000000000000000000, 4.00000000000000000000, 4.00000000000000000000, 4.00000000000000000000, 4.00000000000000000000, 4.00000000000000000000, 4.00000000000000000000, 1673.00000000000000000000, 1679.00000000000000000000, 0.00000000000000000000
79.00000000000000000000, 0.00000000000000000000, 4317.94861236111050000000, 4461.02553193934640000000, 4399.48707190569710000000, 5009.23064673911270000000, 4308.20502285578280000000, 4350.76912437905680000000, 4063.58964422202370000000, 4445.64091693093450000000, 4488.20501845420860000000, 4821.02552313619980000000, 4232.30758881428120000000, 4063.58964422202370000000, 4108.71784824670070000000, 4415.38450741439010000000, 400.00000000000000000000, 4.00000000000000000000, 4.00000000000000000000, 4.00000000000000000000, 4.00000000000000000000, 4.00000000000000000000, 3.00000000000000000000, 4.00000000000000000000, 4.00000000000000000000, 4.00000000000000000000, 4.00000000000000000000, 4.00000000000000000000, 4.00000000000000000000, 4.00000000000000000000, 4.00000000000000000000, 4.00000000000000000000, 4.00000000000000000000, 1672.00000000000000000000, 1678.00000000000000000000, 0.00000000000000000000
80.00000000000000000000, 0.00000000000000000000, 4310.76912535718470000000, 4458.46142943794440000000, 4398.46143090513580000000, 5004.10244173630870000000, 4301.02553585185710000000, 4352.82040638017860000000, 4068.71784922482770000000, 4444.10245543009300000000, 4489.74347995505010000000, 4823.07680513732160000000, 4231.28194781371990000000, 4063.58964422202370000000, 4102.05118174305520000000, 4414.35886641382880000000, 414.00000000000000000000, 4.00000000000000000000, 4.00000000000000000000, 4.00000000000000000000, 4.00000000000000000000, 4.00000000000000000000, 3.00000000000000000000, 4.00000000000000000000, 4.00000000000000000000, 4.00000000000000000000, 4.00000000000000000000, 4.00000000000000000000, 4.00000000000000000000, 4.00000000000000000000, 4.00000000000000000000, 4.00000000000000000000, 4.00000000000000000000, 1672.00000000000000000000, 1677.00000000000000000000, 0.00000000000000000000
81.00000000000000000000, 0.00000000000000000000, 4308.71784335606300000000, 4453.84604493542070000000, 4397.94861040485560000000, 5000.51269823434540000000, 4304.10245885353920000000, 4363.07681638578740000000, 4078.46143873015580000000, 4450.76912193373850000000, 4492.30758245645210000000, 4828.71783064040570000000, 4230.25630681315940000000, 4066.66656722370640000000, 4098.97425874137210000000, 4413.84604591354860000000, 398.00000000000000000000, 4.00000000000000000000, 4.00000000000000000000, 4.00000000000000000000, 4.00000000000000000000, 4.00000000000000000000, 3.00000000000000000000, 4.00000000000000000000, 4.00000000000000000000, 4.00000000000000000000, 4.00000000000000000000, 4.00000000000000000000, 4.00000000000000000000, 4.00000000000000000000, 4.00000000000000000000, 4.00000000000000000000, 4.00000000000000000000, 1671.00000000000000000000, 1675.00000000000000000000, 0.00000000000000000000
82.00000000000000000000, 0.00000000000000000000, 4319.48707386195200000000, 4459.99989093878590000000, 4404.10245640822090000000, 5007.69218523827110000000, 4311.79476635774520000000, 4355.89732938186170000000, 4069.23066972510830000000, 4449.74348093317800000000, 4493.33322345701340000000, 4831.79475364208790000000, 4236.92297331680490000000, 4071.28195172623010000000, 4107.17938674585910000000, 4419.99989191691380000000, 444.00000000000000000000, 4.00000000000000000000, 4.00000000000000000000, 4.00000000000000000000, 4.00000000000000000000, 4.00000000000000000000, 3.00000000000000000000, 4.00000000000000000000, 4.00000000000000000000, 4.00000000000000000000, 4.00000000000000000000, 4.00000000000000000000, 4.00000000000000000000, 4.00000000000000000000, 4.00000000000000000000, 4.00000000000000000000, 4.00000000000000000000, 1671.00000000000000000000, 1675.00000000000000000000, 0.00000000000000000000
83.00000000000000000000, 0.00000000000000000000, 4322.56399686363420000000, 4461.53835243962750000000, 4405.64091790906150000000, 5010.76910823995330000000, 4304.10245885353920000000, 4339.48707337288760000000, 4056.92297771837820000000, 4442.56399392925140000000, 4489.74347995505010000000, 4830.76911264152750000000, 4239.99989631848710000000, 4073.33323372735140000000, 4108.71784824670070000000, 4420.51271241719410000000, 400.00000000000000000000, 4.00000000000000000000, 4.00000000000000000000, 4.00000000000000000000, 4.00000000000000000000, 4.00000000000000000000, 3.00000000000000000000, 4.00000000000000000000, 4.00000000000000000000, 4.00000000000000000000, 4.00000000000000000000, 4.00000000000000000000, 4.00000000000000000000, 4.00000000000000000000, 4.00000000000000000000, 4.00000000000000000000, 4.00000000000000000000, 1671.00000000000000000000, 1672.00000000000000000000, 0.00000000000000000000
84.00000000000000000000, 0.00000000000000000000, 4311.79476635774520000000, 4448.20501943233650000000, 4399.48707190569710000000, 5001.53833923490580000000, 4292.82040784737000000000, 4342.56399637457070000000, 4062.05118272118260000000, 4441.02553242841080000000, 4484.61527495224620000000, 4816.92295913395630000000, 4230.25630681315940000000, 4066.15374672342570000000, 4095.38451523940970000000, 4412.30758441270700000000, 414.00000000000000000000, 4.00000000000000000000, 4.00000000000000000000, 4.00000000000000000000, 4.00000000000000000000, 4.00000000000000000000, 3.00000000000000000000, 4.00000000000000000000, 4.00000000000000000000, 4.00000000000000000000, 4.00000000000000000000, 4.00000000000000000000, 4.00000000000000000000, 4.00000000000000000000, 4.00000000000000000000, 4.00000000000000000000, 4.00000000000000000000, 1671.00000000000000000000, 1672.00000000000000000000, 0.00000000000000000000
85.00000000000000000000, 0.00000000000000000000, 4313.33322785858670000000, 4450.25630143345820000000, 4404.61527690850110000000, 4999.99987773406520000000, 4296.41015134933330000000, 4354.35886788102020000000, 4070.25631072566920000000, 4446.15373743121470000000, 4487.17937745364820000000, 4814.87167713283450000000, 4229.23066581259810000000, 4062.05118272118260000000, 4095.38451523940970000000, 4411.28194341214660000000, 398.00000000000000000000, 4.00000000000000000000, 4.00000000000000000000, 4.00000000000000000000, 4.00000000000000000000, 4.00000000000000000000, 3.00000000000000000000, 4.00000000000000000000, 4.00000000000000000000, 4.00000000000000000000, 4.00000000000000000000, 4.00000000000000000000, 4.00000000000000000000, 4.00000000000000000000, 4.00000000000000000000, 4.00000000000000000000, 4.00000000000000000000, 1671.00000000000000000000, 1672.00000000000000000000, 0.00000000000000000000
86.00000000000000000000, 0.00000000000000000000, 4322.56399686363420000000, 4459.48707043850570000000, 4414.35886641382880000000, 5010.25628773967310000000, 4302.05117685241750000000, 4356.41014988214190000000, 4068.71784922482770000000, 4450.25630143345820000000, 4489.74347995505010000000, 4828.71783064040570000000, 4237.43579381708510000000, 4068.20502872454740000000, 4106.66656624557890000000, 4416.92296891523070000000, 444.00000000000000000000, 4.00000000000000000000, 4.00000000000000000000, 4.00000000000000000000, 4.00000000000000000000, 4.00000000000000000000, 3.00000000000000000000, 4.00000000000000000000, 4.00000000000000000000, 4.00000000000000000000, 4.00000000000000000000, 4.00000000000000000000, 4.00000000000000000000, 4.00000000000000000000, 4.00000000000000000000, 4.00000000000000000000, 4.00000000000000000000, 1671.00000000000000000000, 1672.00000000000000000000, 0.00000000000000000000
87.00000000000000000000, 0.00000000000000000000, 4316.41015086026890000000, 4449.23066043289690000000, 4405.64091790906150000000, 5005.12808273686910000000, 4299.48707435101550000000, 4351.79476537961820000000, 4066.15374672342570000000, 4447.17937843177510000000, 4481.53835195056310000000, 4823.07680513732160000000, 4226.66656331119610000000, 4063.07682372174350000000, 4094.35887423884880000000, 4408.71784091074460000000, 400.00000000000000000000, 4.00000000000000000000, 4.00000000000000000000, 4.00000000000000000000, 4.00000000000000000000, 4.00000000000000000000, 3.00000000000000000000, 4.00000000000000000000, 4.00000000000000000000, 4.00000000000000000000, 4.00000000000000000000, 4.00000000000000000000, 4.00000000000000000000, 4.00000000000000000000, 4.00000000000000000000, 4.00000000000000000000, 4.00000000000000000000, 1671.00000000000000000000, 1670.00000000000000000000, 0.00000000000000000000
88.00000000000000000000, 0.00000000000000000000, 4307.17938185522140000000, 4437.43578892644750000000, 4395.38450790345360000000, 4994.35885223098010000000, 4299.99989485129570000000, 4348.71784237793510000000, 4070.76913122594940000000, 4441.02553242841080000000, 4471.28194194495520000000, 4804.10244662694550000000, 4215.89733280530710000000, 4049.23067021417180000000, 4077.94861822987510000000, 4395.89732840373380000000, 414.00000000000000000000, 4.00000000000000000000, 4.00000000000000000000, 4.00000000000000000000, 4.00000000000000000000, 4.00000000000000000000, 3.00000000000000000000, 4.00000000000000000000, 4.00000000000000000000, 4.00000000000000000000, 4.00000000000000000000, 4.00000000000000000000, 4.00000000000000000000, 4.00000000000000000000, 4.00000000000000000000, 4.00000000000000000000, 4.00000000000000000000, 1672.00000000000000000000, 1671.00000000000000000000, 0.00000000000000000000
89.00000000000000000000, 0.00000000000000000000, 4310.76912535718470000000, 4446.66655793149490000000, 4399.99989240597730000000, 5002.56398023546720000000, 4305.12809985409970000000, 4353.33322688045880000000, 4076.41015672903400000000, 4443.07681442953250000000, 4475.89732644747890000000, 4809.74347213003060000000, 4227.69220431175750000000, 4051.79477271557430000000, 4088.71784873576420000000, 4403.07681540765950000000, 398.00000000000000000000, 4.00000000000000000000, 4.00000000000000000000, 4.00000000000000000000, 4.00000000000000000000, 4.00000000000000000000, 3.00000000000000000000, 4.00000000000000000000, 4.00000000000000000000, 4.00000000000000000000, 4.00000000000000000000, 4.00000000000000000000, 4.00000000000000000000, 4.00000000000000000000, 4.00000000000000000000, 4.00000000000000000000, 4.00000000000000000000, 1673.00000000000000000000, 1671.00000000000000000000, 0.00000000000000000000
90.00000000000000000000, 0.00000000000000000000, 4313.33322785858670000000, 4452.30758343458000000000, 4401.53835390681890000000, 5008.71782623883250000000, 4306.15374085466100000000, 4360.51271388438540000000, 4078.97425923043600000000, 4447.17937843177510000000, 4487.69219795392840000000, 4824.10244613788200000000, 4234.87169131568320000000, 4060.51272122034110000000, 4101.02554074249380000000, 4414.35886641382880000000, 444.00000000000000000000, 4.00000000000000000000, 4.00000000000000000000, 4.00000000000000000000, 4.00000000000000000000, 4.00000000000000000000, 3.00000000000000000000, 4.00000000000000000000, 4.00000000000000000000, 4.00000000000000000000, 4.00000000000000000000, 4.00000000000000000000, 4.00000000000000000000, 4.00000000000000000000, 4.00000000000000000000, 4.00000000000000000000, 4.00000000000000000000, 1675.00000000000000000000, 1673.00000000000000000000, 0.00000000000000000000
91.00000000000000000000, 0.00000000000000000000, 4310.25630485690450000000, 4448.20501943233650000000, 4398.97425140541600000000, 5004.61526223658890000000, 4304.10245885353920000000, 4359.48707288382410000000, 4076.41015672903400000000, 4447.69219893205630000000, 4490.76912095561060000000, 4826.66654863928400000000, 4229.74348631287920000000, 4062.05118272118260000000, 4099.48707924165320000000, 4413.84604591354860000000, 400.00000000000000000000, 4.00000000000000000000, 4.00000000000000000000, 4.00000000000000000000, 4.00000000000000000000, 4.00000000000000000000, 3.00000000000000000000, 4.00000000000000000000, 4.00000000000000000000, 4.00000000000000000000, 4.00000000000000000000, 4.00000000000000000000, 4.00000000000000000000, 4.00000000000000000000, 4.00000000000000000000, 4.00000000000000000000, 4.00000000000000000000, 1675.00000000000000000000, 1673.00000000000000000000, 0.00000000000000000000
92.00000000000000000000, 0.00000000000000000000, 4313.33322785858670000000, 4451.28194243401870000000, 4403.58963590793970000000, 5006.15372373742960000000, 4305.12809985409970000000, 4351.28194487933800000000, 4074.35887472791230000000, 4452.82040393486020000000, 4489.23065945476990000000, 4825.64090763872350000000, 4231.28194781371990000000, 4064.10246472230390000000, 4101.53836124277500000000, 4418.46143041607230000000, 414.00000000000000000000, 4.00000000000000000000, 4.00000000000000000000, 4.00000000000000000000, 4.00000000000000000000, 4.00000000000000000000, 3.00000000000000000000, 4.00000000000000000000, 4.00000000000000000000, 4.00000000000000000000, 4.00000000000000000000, 4.00000000000000000000, 4.00000000000000000000, 4.00000000000000000000, 4.00000000000000000000, 4.00000000000000000000, 4.00000000000000000000, 1676.00000000000000000000, 1675.00000000000000000000, 0.00000000000000000000
93.00000000000000000000, 0.00000000000000000000, 4314.35886885914720000000, 4456.92296793710370000000, 4405.12809740878130000000, 5011.28192874023440000000, 4309.74348435662340000000, 4351.28194487933800000000, 4073.84605422763210000000, 4456.41014743682260000000, 4487.69219795392840000000, 4825.12808713844240000000, 4235.38451181596340000000, 4065.12810572286480000000, 4103.58964324389580000000, 4424.61527641943760000000, 398.00000000000000000000, 4.00000000000000000000, 4.00000000000000000000, 4.00000000000000000000, 4.00000000000000000000, 4.00000000000000000000, 3.00000000000000000000, 4.00000000000000000000, 4.00000000000000000000, 4.00000000000000000000, 4.00000000000000000000, 4.00000000000000000000, 4.00000000000000000000, 4.00000000000000000000, 4.00000000000000000000, 4.00000000000000000000, 4.00000000000000000000, 1676.00000000000000000000, 1676.00000000000000000000, 0.00000000000000000000
94.00000000000000000000, 0.00000000000000000000, 4312.82040735830650000000, 4458.46142943794440000000, 4400.51271290625750000000, 5010.76910823995330000000, 4307.17938185522140000000, 4355.38450888158060000000, 4068.71784922482770000000, 4449.23066043289690000000, 4481.53835195056310000000, 4830.25629214124730000000, 4232.30758881428120000000, 4062.05118272118260000000, 4099.99989974193340000000, 4417.43578941551100000000, 444.00000000000000000000, 4.00000000000000000000, 4.00000000000000000000, 4.00000000000000000000, 4.00000000000000000000, 4.00000000000000000000, 3.00000000000000000000, 4.00000000000000000000, 4.00000000000000000000, 4.00000000000000000000, 4.00000000000000000000, 4.00000000000000000000, 4.00000000000000000000, 4.00000000000000000000, 4.00000000000000000000, 4.00000000000000000000, 4.00000000000000000000, 1677.00000000000000000000, 1678.00000000000000000000, 0.00000000000000000000
95.00000000000000000000, 0.00000000000000000000, 4313.84604835886690000000, 4453.84604493542070000000, 4400.51271290625750000000, 5005.12808273686910000000, 4297.94861285017400000000, 4348.20502187765490000000, 4056.92297771837820000000, 4436.92296842616720000000, 4471.79476244523540000000, 4825.64090763872350000000, 4230.76912731343960000000, 4061.02554172062170000000, 4094.35887423884880000000, 4410.76912291186640000000, 400.00000000000000000000, 4.00000000000000000000, 4.00000000000000000000, 4.00000000000000000000, 4.00000000000000000000, 4.00000000000000000000, 3.00000000000000000000, 4.00000000000000000000, 4.00000000000000000000, 4.00000000000000000000, 4.00000000000000000000, 4.00000000000000000000, 4.00000000000000000000, 4.00000000000000000000, 4.00000000000000000000, 4.00000000000000000000, 4.00000000000000000000, 1677.00000000000000000000, 1677.00000000000000000000, 0.00000000000000000000
96.00000000000000000000, 0.00000000000000000000, 4314.35886885914720000000, 4451.28194243401870000000, 4406.15373840934260000000, 5003.58962123602760000000, 4295.38451034877200000000, 4349.23066287821620000000, 4059.99990072006090000000, 4438.46142992700880000000, 4478.97424944916110000000, 4816.92295913395630000000, 4230.76912731343960000000, 4063.07682372174350000000, 4093.84605373856810000000, 4415.89732791467030000000, 414.00000000000000000000, 4.00000000000000000000, 4.00000000000000000000, 4.00000000000000000000, 4.00000000000000000000, 4.00000000000000000000, 3.00000000000000000000, 4.00000000000000000000, 4.00000000000000000000, 4.00000000000000000000, 4.00000000000000000000, 4.00000000000000000000, 4.00000000000000000000, 4.00000000000000000000, 4.00000000000000000000, 4.00000000000000000000, 4.00000000000000000000, 1676.00000000000000000000, 1679.00000000000000000000, 0.00000000000000000000
97.00000000000000000000, 0.00000000000000000000, 4318.46143286139070000000, 4456.41014743682260000000, 4409.74348191130500000000, 5008.71782623883250000000, 4302.05117685241750000000, 4365.64091888718940000000, 4072.30759272679100000000, 4448.20501943233650000000, 4491.79476195617190000000, 4819.48706163535830000000, 4230.25630681315940000000, 4067.17938772398660000000, 4099.99989974193340000000, 4418.46143041607230000000, 398.00000000000000000000, 4.00000000000000000000, 4.00000000000000000000, 4.00000000000000000000, 4.00000000000000000000, 4.00000000000000000000, 3.00000000000000000000, 4.00000000000000000000, 4.00000000000000000000, 4.00000000000000000000, 4.00000000000000000000, 4.00000000000000000000, 4.00000000000000000000, 4.00000000000000000000, 4.00000000000000000000, 4.00000000000000000000, 4.00000000000000000000, 1677.00000000000000000000, 1677.00000000000000000000, 0.00000000000000000000
98.00000000000000000000, 0.00000000000000000000, 4322.05117636335400000000, 4462.05117293990770000000, 4409.23066141102480000000, 5011.28192874023440000000, 4308.71784335606300000000, 4363.58963688606760000000, 4067.69220822426720000000, 4443.58963492981270000000, 4484.10245445196600000000, 4822.56398463704040000000, 4233.84605031512180000000, 4068.71784922482770000000, 4101.02554074249380000000, 4416.41014841495050000000, 444.00000000000000000000, 4.00000000000000000000, 4.00000000000000000000, 4.00000000000000000000, 4.00000000000000000000, 4.00000000000000000000, 3.00000000000000000000, 4.00000000000000000000, 4.00000000000000000000, 4.00000000000000000000, 4.00000000000000000000, 4.00000000000000000000, 4.00000000000000000000, 4.00000000000000000000, 4.00000000000000000000, 4.00000000000000000000, 4.00000000000000000000, 1675.00000000000000000000, 1679.00000000000000000000, 0.00000000000000000000
99.00000000000000000000, 0.00000000000000000000, 4314.87168935942830000000, 4453.84604493542070000000, 4403.07681540765950000000, 5003.07680073574740000000, 4303.58963835325900000000, 4348.71784237793510000000, 4065.12810572286480000000, 4429.74348142224150000000, 4470.25630094439480000000, 4811.79475413115230000000, 4230.25630681315940000000, 4061.53836222090190000000, 4091.28195123716610000000, 4413.84604591354860000000, 400.00000000000000000000, 4.00000000000000000000, 4.00000000000000000000, 4.00000000000000000000, 4.00000000000000000000, 4.00000000000000000000, 3.00000000000000000000, 4.00000000000000000000, 4.00000000000000000000, 4.00000000000000000000, 4.00000000000000000000, 4.00000000000000000000, 4.00000000000000000000, 4.00000000000000000000, 4.00000000000000000000, 4.00000000000000000000, 4.00000000000000000000, 1676.00000000000000000000, 1681.00000000000000000000, 0.00000000000000000000
100.00000000000000000000, 0.00000000000000000000, 4306.66656135494120000000, 4442.56399392925140000000, 4398.97425140541600000000, 4997.94859573294340000000, 4294.35886934821160000000, 4349.23066287821620000000, 4077.43579772959490000000, 4431.79476342336330000000, 4471.79476244523540000000, 4804.61526712722570000000, 4217.43579430614860000000, 4056.92297771837820000000, 4085.64092573408150000000, 4409.23066141102480000000, 414.00000000000000000000, 4.00000000000000000000, 4.00000000000000000000, 4.00000000000000000000, 4.00000000000000000000, 4.00000000000000000000, 3.00000000000000000000, 4.00000000000000000000, 4.00000000000000000000, 4.00000000000000000000, 4.00000000000000000000, 4.00000000000000000000, 4.00000000000000000000, 4.00000000000000000000, 4.00000000000000000000, 4.00000000000000000000, 4.00000000000000000000, 1676.00000000000000000000, 1681.00000000000000000000, 0.00000000000000000000
101.00000000000000000000, 0.00000000000000000000, 4314.87168935942830000000, 4451.79476293429890000000, 4407.17937940990300000000, 5007.69218523827110000000, 4298.46143335045510000000, 4357.43579088270230000000, 4076.41015672903400000000, 4441.02553242841080000000, 4478.97424944916110000000, 4808.71783112946920000000, 4218.97425580699020000000, 4064.10246472230390000000, 4091.79477173744680000000, 4411.28194341214660000000, 398.00000000000000000000, 4.00000000000000000000, 4.00000000000000000000, 4.00000000000000000000, 4.00000000000000000000, 4.00000000000000000000, 3.00000000000000000000, 4.00000000000000000000, 4.00000000000000000000, 4.00000000000000000000, 4.00000000000000000000, 4.00000000000000000000, 4.00000000000000000000, 4.00000000000000000000, 4.00000000000000000000, 4.00000000000000000000, 4.00000000000000000000, 1675.00000000000000000000, 1682.00000000000000000000, 0.00000000000000000000
102.00000000000000000000, 0.00000000000000000000, 4319.99989436223220000000, 4462.05117293990770000000, 4414.35886641382880000000, 5013.33321074135620000000, 4305.12809985409970000000, 4355.38450888158060000000, 4065.12810572286480000000, 4435.89732742560680000000, 4475.38450594719870000000, 4804.61526712722570000000, 4231.79476831400010000000, 4067.69220822426720000000, 4093.84605373856810000000, 4415.89732791467030000000, 444.00000000000000000000, 4.00000000000000000000, 4.00000000000000000000, 4.00000000000000000000, 4.00000000000000000000, 4.00000000000000000000, 3.00000000000000000000, 4.00000000000000000000, 4.00000000000000000000, 4.00000000000000000000, 4.00000000000000000000, 4.00000000000000000000, 4.00000000000000000000, 4.00000000000000000000, 4.00000000000000000000, 4.00000000000000000000, 4.00000000000000000000, 1674.00000000000000000000, 1682.00000000000000000000, 0.00000000000000000000
103.00000000000000000000, 0.00000000000000000000, 4312.82040735830650000000, 4456.92296793710370000000, 4407.17937940990300000000, 5008.20500573855130000000, 4299.99989485129570000000, 4350.25630387877660000000, 4064.10246472230390000000, 4434.35886592476530000000, 4470.76912144467500000000, 4795.38449812217820000000, 4226.66656331119610000000, 4064.10246472230390000000, 4089.23066923604440000000, 4414.87168691410900000000, 400.00000000000000000000, 4.00000000000000000000, 4.00000000000000000000, 4.00000000000000000000, 4.00000000000000000000, 4.00000000000000000000, 3.00000000000000000000, 4.00000000000000000000, 4.00000000000000000000, 4.00000000000000000000, 4.00000000000000000000, 4.00000000000000000000, 4.00000000000000000000, 4.00000000000000000000, 4.00000000000000000000, 4.00000000000000000000, 4.00000000000000000000, 1675.00000000000000000000, 1681.00000000000000000000, 0.00000000000000000000
104.00000000000000000000, 0.00000000000000000000, 4309.23066385634320000000, 4443.07681442953250000000, 4401.02553340653780000000, 5001.02551873462560000000, 4292.82040784737000000000, 4353.33322688045880000000, 4067.69220822426720000000, 4444.10245543009300000000, 4474.87168544691850000000, 4796.41013912273960000000, 4216.41015330558820000000, 4064.10246472230390000000, 4089.74348973632500000000, 4412.82040491298720000000, 414.00000000000000000000, 4.00000000000000000000, 4.00000000000000000000, 4.00000000000000000000, 4.00000000000000000000, 4.00000000000000000000, 3.00000000000000000000, 4.00000000000000000000, 4.00000000000000000000, 4.00000000000000000000, 4.00000000000000000000, 4.00000000000000000000, 4.00000000000000000000, 4.00000000000000000000, 4.00000000000000000000, 4.00000000000000000000, 4.00000000000000000000, 1675.00000000000000000000, 1679.00000000000000000000, 0.00000000000000000000
105.00000000000000000000, 0.00000000000000000000, 4309.74348435662340000000, 4434.87168642504550000000, 4403.58963590793970000000, 4998.46141623322360000000, 4293.33322834765020000000, 4356.41014988214190000000, 4071.28195172623010000000, 4447.17937843177510000000, 4482.56399295112440000000, 4805.12808762750680000000, 4223.58964030951390000000, 4066.15374672342570000000, 4090.25631023660530000000, 4414.35886641382880000000, 398.00000000000000000000, 4.00000000000000000000, 4.00000000000000000000, 4.00000000000000000000, 4.00000000000000000000, 4.00000000000000000000, 3.00000000000000000000, 4.00000000000000000000, 4.00000000000000000000, 4.00000000000000000000, 4.00000000000000000000, 4.00000000000000000000, 4.00000000000000000000, 4.00000000000000000000, 4.00000000000000000000, 4.00000000000000000000, 4.00000000000000000000, 1674.00000000000000000000, 1679.00000000000000000000, 0.00000000000000000000
106.00000000000000000000, 0.00000000000000000000, 4310.76912535718470000000, 4447.17937843177510000000, 4405.12809740878130000000, 5001.02551873462560000000, 4293.33322834765020000000, 4351.28194487933800000000, 4075.38451572847320000000, 4443.58963492981270000000, 4484.10245445196600000000, 4805.64090812778700000000, 4225.64092231063570000000, 4064.10246472230390000000, 4087.17938723492310000000, 4412.82040491298720000000, 444.00000000000000000000, 4.00000000000000000000, 4.00000000000000000000, 4.00000000000000000000, 4.00000000000000000000, 4.00000000000000000000, 3.00000000000000000000, 4.00000000000000000000, 4.00000000000000000000, 4.00000000000000000000, 4.00000000000000000000, 4.00000000000000000000, 4.00000000000000000000, 4.00000000000000000000, 4.00000000000000000000, 4.00000000000000000000, 4.00000000000000000000, 1676.00000000000000000000, 1678.00000000000000000000, 0.00000000000000000000
107.00000000000000000000, 0.00000000000000000000, 4310.25630485690450000000, 4465.64091644187010000000, 4398.97425140541600000000, 5004.61526223658890000000, 4296.41015134933330000000, 4348.71784237793510000000, 4070.76913122594940000000, 4442.56399392925140000000, 4477.43578794832050000000, 4801.02552362526330000000, 4215.38451230502690000000, 4057.43579821865890000000, 4083.58964373295980000000, 4405.64091790906150000000, 400.00000000000000000000, 4.00000000000000000000, 4.00000000000000000000, 4.00000000000000000000, 4.00000000000000000000, 4.00000000000000000000, 3.00000000000000000000, 4.00000000000000000000, 4.00000000000000000000, 4.00000000000000000000, 4.00000000000000000000, 4.00000000000000000000, 4.00000000000000000000, 4.00000000000000000000, 4.00000000000000000000, 4.00000000000000000000, 4.00000000000000000000, 1676.00000000000000000000, 1678.00000000000000000000, 0.00000000000000000000
108.00000000000000000000, 0.00000000000000000000, 4310.76912535718470000000, 4477.43578794832050000000, 4400.51271290625750000000, 5013.33321074135620000000, 4305.64092035438080000000, 4355.89732938186170000000, 4065.64092622314550000000, 4441.53835292869100000000, 4478.46142894888090000000, 4807.69219012890880000000, 4214.87169180474670000000, 4056.92297771837820000000, 4083.58964373295980000000, 4408.20502041046350000000, 414.00000000000000000000, 4.00000000000000000000, 4.00000000000000000000, 4.00000000000000000000, 4.00000000000000000000, 4.00000000000000000000, 3.00000000000000000000, 4.00000000000000000000, 4.00000000000000000000, 4.00000000000000000000, 4.00000000000000000000, 4.00000000000000000000, 4.00000000000000000000, 4.00000000000000000000, 4.00000000000000000000, 4.00000000000000000000, 4.00000000000000000000, 1677.00000000000000000000, 1677.00000000000000000000, 0.00000000000000000000
109.00000000000000000000, 0.00000000000000000000, 4311.79476635774520000000, 4482.56399295112440000000, 4407.69219991018330000000, 5023.07680024668390000000, 4309.74348435662340000000, 4358.97425238354390000000, 4066.15374672342570000000, 4440.51271192813060000000, 4488.20501845420860000000, 4815.38449763311470000000, 4220.51271730783080000000, 4062.56400322146280000000, 4084.10246423324040000000, 4415.38450741439010000000, 398.00000000000000000000, 4.00000000000000000000, 4.00000000000000000000, 4.00000000000000000000, 4.00000000000000000000, 4.00000000000000000000, 3.00000000000000000000, 4.00000000000000000000, 4.00000000000000000000, 4.00000000000000000000, 4.00000000000000000000, 4.00000000000000000000, 4.00000000000000000000, 4.00000000000000000000, 4.00000000000000000000, 4.00000000000000000000, 4.00000000000000000000, 1677.00000000000000000000, 1676.00000000000000000000, 0.00000000000000000000
110.00000000000000000000, 0.00000000000000000000, 4311.79476635774520000000, 4481.02553145028290000000, 4404.61527690850110000000, 5021.53833874584230000000, 4307.17938185522140000000, 4359.48707288382410000000, 4067.69220822426720000000, 4443.07681442953250000000, 4492.82040295673230000000, 4813.84603613227410000000, 4218.46143530671000000000, 4063.07682372174350000000, 4080.51272073127760000000, 4410.76912291186640000000, 444.00000000000000000000, 4.00000000000000000000, 4.00000000000000000000, 4.00000000000000000000, 4.00000000000000000000, 4.00000000000000000000, 3.00000000000000000000, 4.00000000000000000000, 4.00000000000000000000, 4.00000000000000000000, 4.00000000000000000000, 4.00000000000000000000, 4.00000000000000000000, 4.00000000000000000000, 4.00000000000000000000, 4.00000000000000000000, 4.00000000000000000000, 1679.00000000000000000000, 1676.00000000000000000000, 0.00000000000000000000
111.00000000000000000000, 0.00000000000000000000, 4312.82040735830650000000, 4483.07681345140460000000, 4398.97425140541600000000, 5018.46141574416010000000, 4308.71784335606300000000, 4364.61527788662810000000, 4072.82041322707120000000, 4445.64091693093450000000, 4490.25630045533030000000, 4813.33321563199300000000, 4217.43579430614860000000, 4059.99990072006090000000, 4081.53836173183840000000, 4407.17937940990300000000, 400.00000000000000000000, 4.00000000000000000000, 4.00000000000000000000, 4.00000000000000000000, 4.00000000000000000000, 4.00000000000000000000, 3.00000000000000000000, 4.00000000000000000000, 4.00000000000000000000, 4.00000000000000000000, 4.00000000000000000000, 4.00000000000000000000, 4.00000000000000000000, 4.00000000000000000000, 4.00000000000000000000, 4.00000000000000000000, 4.00000000000000000000, 1679.00000000000000000000, 1675.00000000000000000000, 0.00000000000000000000
112.00000000000000000000, 0.00000000000000000000, 4314.35886885914720000000, 4487.69219795392840000000, 4401.02553340653780000000, 5024.10244124724430000000, 4312.82040735830650000000, 4359.99989338410430000000, 4075.89733622875380000000, 4444.61527593037320000000, 4487.69219795392840000000, 4814.87167713283450000000, 4219.48707630727040000000, 4059.48708021978020000000, 4085.64092573408150000000, 4409.74348191130500000000, 414.00000000000000000000, 4.00000000000000000000, 4.00000000000000000000, 4.00000000000000000000, 4.00000000000000000000, 4.00000000000000000000, 3.00000000000000000000, 4.00000000000000000000, 4.00000000000000000000, 4.00000000000000000000, 4.00000000000000000000, 4.00000000000000000000, 4.00000000000000000000, 4.00000000000000000000, 4.00000000000000000000, 4.00000000000000000000, 4.00000000000000000000, 1679.00000000000000000000, 1677.00000000000000000000, 0.00000000000000000000
113.00000000000000000000, 0.00000000000000000000, 4312.30758685802630000000, 4482.05117245084420000000, 4403.07681540765950000000, 5021.53833874584230000000, 4306.66656135494120000000, 4351.79476537961820000000, 4074.35887472791230000000, 4444.10245543009300000000, 4489.23065945476990000000, 4807.17936962862860000000, 4217.94861480642880000000, 4059.99990072006090000000, 4082.56400273239930000000, 4409.23066141102480000000, 398.00000000000000000000, 4.00000000000000000000, 4.00000000000000000000, 4.00000000000000000000, 4.00000000000000000000, 4.00000000000000000000, 3.00000000000000000000, 4.00000000000000000000, 4.00000000000000000000, 4.00000000000000000000, 4.00000000000000000000, 4.00000000000000000000, 4.00000000000000000000, 4.00000000000000000000, 4.00000000000000000000, 4.00000000000000000000, 4.00000000000000000000, 1681.00000000000000000000, 1676.00000000000000000000, 0.00000000000000000000
114.00000000000000000000, 0.00000000000000000000, 4312.82040735830650000000, 4475.89732644747890000000, 4406.66655890962280000000, 5012.82039024107510000000, 4299.99989485129570000000, 4354.35886788102020000000, 4079.48707973071670000000, 4451.79476293429890000000, 4488.20501845420860000000, 4797.94860062358110000000, 4216.41015330558820000000, 4059.99990072006090000000, 4075.89733622875380000000, 4409.23066141102480000000, 444.00000000000000000000, 4.00000000000000000000, 4.00000000000000000000, 4.00000000000000000000, 4.00000000000000000000, 4.00000000000000000000, 3.00000000000000000000, 4.00000000000000000000, 4.00000000000000000000, 4.00000000000000000000, 4.00000000000000000000, 4.00000000000000000000, 4.00000000000000000000, 4.00000000000000000000, 4.00000000000000000000, 4.00000000000000000000, 4.00000000000000000000, 1680.00000000000000000000, 1677.00000000000000000000, 0.00000000000000000000
115.00000000000000000000, 0.00000000000000000000, 4316.92297136055000000000, 4477.94860844860070000000, 4411.28194341214660000000, 5017.94859524387990000000, 4304.61527935381950000000, 4355.38450888158060000000, 4084.10246423324040000000, 4458.46142943794440000000, 4483.58963395168480000000, 4799.48706212442180000000, 4217.43579430614860000000, 4058.46143921921930000000, 4074.87169522819290000000, 4409.74348191130500000000, 400.00000000000000000000, 4.00000000000000000000, 4.00000000000000000000, 4.00000000000000000000, 4.00000000000000000000, 4.00000000000000000000, 3.00000000000000000000, 4.00000000000000000000, 4.00000000000000000000, 4.00000000000000000000, 4.00000000000000000000, 4.00000000000000000000, 4.00000000000000000000, 4.00000000000000000000, 4.00000000000000000000, 4.00000000000000000000, 4.00000000000000000000, 1681.00000000000000000000, 1677.00000000000000000000, 0.00000000000000000000
116.00000000000000000000, 0.00000000000000000000, 4313.33322785858670000000, 4477.43578794832050000000, 4407.69219991018330000000, 5023.07680024668390000000, 4305.12809985409970000000, 4354.87168838130040000000, 4077.43579772959490000000, 4459.48707043850570000000, 4485.12809545252640000000, 4806.66654912834750000000, 4217.94861480642880000000, 4056.41015721809800000000, 4075.89733622875380000000, 4402.56399490737930000000, 414.00000000000000000000, 4.00000000000000000000, 4.00000000000000000000, 4.00000000000000000000, 4.00000000000000000000, 4.00000000000000000000, 3.00000000000000000000, 4.00000000000000000000, 4.00000000000000000000, 4.00000000000000000000, 4.00000000000000000000, 4.00000000000000000000, 4.00000000000000000000, 4.00000000000000000000, 4.00000000000000000000, 4.00000000000000000000, 4.00000000000000000000, 1680.00000000000000000000, 1677.00000000000000000000, 0.00000000000000000000
117.00000000000000000000, 0.00000000000000000000, 4310.25630485690450000000, 4474.35886494663740000000, 4402.05117440709910000000, 5018.97423624444040000000, 4304.61527935381950000000, 4364.61527788662810000000, 4072.82041322707120000000, 4459.99989093878590000000, 4489.74347995505010000000, 4812.30757463143250000000, 4216.92297380586840000000, 4060.51272122034110000000, 4075.89733622875380000000, 4398.46143090513580000000, 398.00000000000000000000, 4.00000000000000000000, 4.00000000000000000000, 4.00000000000000000000, 4.00000000000000000000, 4.00000000000000000000, 3.00000000000000000000, 4.00000000000000000000, 4.00000000000000000000, 4.00000000000000000000, 4.00000000000000000000, 4.00000000000000000000, 4.00000000000000000000, 4.00000000000000000000, 4.00000000000000000000, 4.00000000000000000000, 4.00000000000000000000, 1681.00000000000000000000, 1677.00000000000000000000, 0.00000000000000000000
118.00000000000000000000, 0.00000000000000000000, 4313.33322785858670000000, 4477.94860844860070000000, 4400.51271290625750000000, 5015.38449274247710000000, 4306.15374085466100000000, 4369.23066238915180000000, 4079.48707973071670000000, 4461.53835243962750000000, 4491.79476195617190000000, 4810.76911313059100000000, 4217.43579430614860000000, 4063.07682372174350000000, 4076.92297722931470000000, 4400.51271290625750000000, 444.00000000000000000000, 4.00000000000000000000, 4.00000000000000000000, 4.00000000000000000000, 4.00000000000000000000, 4.00000000000000000000, 3.00000000000000000000, 4.00000000000000000000, 4.00000000000000000000, 4.00000000000000000000, 4.00000000000000000000, 4.00000000000000000000, 4.00000000000000000000, 4.00000000000000000000, 4.00000000000000000000, 4.00000000000000000000, 4.00000000000000000000, 1680.00000000000000000000, 1678.00000000000000000000, 0.00000000000000000000
119.00000000000000000000, 0.00000000000000000000, 4309.23066385634320000000, 4476.41014694775910000000, 4397.43578990457540000000, 5010.76910823995330000000, 4304.61527935381950000000, 4355.89732938186170000000, 4078.97425923043600000000, 4458.97424993822550000000, 4489.23065945476990000000, 4802.05116462582370000000, 4215.89733280530710000000, 4055.38451621753710000000, 4073.84605422763210000000, 4397.94861040485560000000, 400.00000000000000000000, 4.00000000000000000000, 4.00000000000000000000, 4.00000000000000000000, 4.00000000000000000000, 4.00000000000000000000, 3.00000000000000000000, 4.00000000000000000000, 4.00000000000000000000, 4.00000000000000000000, 4.00000000000000000000, 4.00000000000000000000, 4.00000000000000000000, 4.00000000000000000000, 4.00000000000000000000, 4.00000000000000000000, 4.00000000000000000000, 1680.00000000000000000000, 1678.00000000000000000000, 0.00000000000000000000
120.00000000000000000000, 0.00000000000000000000, 4303.58963835325900000000, 4471.79476244523540000000, 4396.41014890401400000000, 5012.30756974079490000000, 4307.17938185522140000000, 4347.17938087709440000000, 4067.69220822426720000000, 4454.87168593598200000000, 4486.66655695336790000000, 4801.02552362526330000000, 4214.87169180474670000000, 4052.30759321585450000000, 4071.79477222651030000000, 4395.89732840373380000000, 414.00000000000000000000, 4.00000000000000000000, 4.00000000000000000000, 4.00000000000000000000, 4.00000000000000000000, 4.00000000000000000000, 3.00000000000000000000, 4.00000000000000000000, 4.00000000000000000000, 4.00000000000000000000, 4.00000000000000000000, 4.00000000000000000000, 4.00000000000000000000, 4.00000000000000000000, 4.00000000000000000000, 4.00000000000000000000, 4.00000000000000000000, 1678.00000000000000000000, 1678.00000000000000000000, 0.00000000000000000000
121.00000000000000000000, 0.00000000000000000000, 4308.71784335606300000000, 4478.46142894888090000000, 4399.99989240597730000000, 5023.07680024668390000000, 4315.38450985970850000000, 4350.76912437905680000000, 4066.66656722370640000000, 4456.92296793710370000000, 4486.66655695336790000000, 4810.76911313059100000000, 4217.43579430614860000000, 4057.94861871893910000000, 4080.51272073127760000000, 4401.02553340653780000000, 398.00000000000000000000, 4.00000000000000000000, 4.00000000000000000000, 4.00000000000000000000, 4.00000000000000000000, 4.00000000000000000000, 3.00000000000000000000, 4.00000000000000000000, 4.00000000000000000000, 4.00000000000000000000, 4.00000000000000000000, 4.00000000000000000000, 4.00000000000000000000, 4.00000000000000000000, 4.00000000000000000000, 4.00000000000000000000, 4.00000000000000000000, 1678.00000000000000000000, 1679.00000000000000000000, 0.00000000000000000000
122.00000000000000000000, 0.00000000000000000000, 4313.33322785858670000000, 4487.17937745364820000000, 4400.51271290625750000000, 5026.66654374864630000000, 4314.35886885914720000000, 4355.38450888158060000000, 4074.87169522819290000000, 4455.38450643626220000000, 4492.30758245645210000000, 4813.84603613227410000000, 4219.99989680755060000000, 4060.51272122034110000000, 4086.15374623436220000000, 4405.12809740878130000000, 444.00000000000000000000, 4.00000000000000000000, 4.00000000000000000000, 4.00000000000000000000, 4.00000000000000000000, 4.00000000000000000000, 3.00000000000000000000, 4.00000000000000000000, 4.00000000000000000000, 4.00000000000000000000, 4.00000000000000000000, 4.00000000000000000000, 4.00000000000000000000, 4.00000000000000000000, 4.00000000000000000000, 4.00000000000000000000, 4.00000000000000000000, 1677.00000000000000000000, 1678.00000000000000000000, 0.00000000000000000000
123.00000000000000000000, 0.00000000000000000000, 4308.20502285578280000000, 4482.56399295112440000000, 4399.99989240597730000000, 5018.97423624444040000000, 4309.23066385634320000000, 4356.41014988214190000000, 4077.43579772959490000000, 4448.71783993261670000000, 4494.87168495785410000000, 4814.35885663255430000000, 4219.99989680755060000000, 4054.87169571725640000000, 4081.02554123155780000000, 4403.07681540765950000000, 400.00000000000000000000, 4.00000000000000000000, 4.00000000000000000000, 4.00000000000000000000, 4.00000000000000000000, 4.00000000000000000000, 3.00000000000000000000, 4.00000000000000000000, 4.00000000000000000000, 4.00000000000000000000, 4.00000000000000000000, 4.00000000000000000000, 4.00000000000000000000, 4.00000000000000000000, 4.00000000000000000000, 4.00000000000000000000, 4.00000000000000000000, 1676.00000000000000000000, 1679.00000000000000000000, 0.00000000000000000000
124.00000000000000000000, 0.00000000000000000000, 4298.46143335045510000000, 4472.30758294551560000000, 4396.41014890401400000000, 5012.30756974079490000000, 4310.76912535718470000000, 4352.82040638017860000000, 4069.74349022538850000000, 4442.56399392925140000000, 4482.05117245084420000000, 4811.79475413115230000000, 4213.33323030390510000000, 4046.15374721248960000000, 4072.30759272679100000000, 4394.87168740317340000000, 414.00000000000000000000, 4.00000000000000000000, 4.00000000000000000000, 4.00000000000000000000, 4.00000000000000000000, 4.00000000000000000000, 3.00000000000000000000, 4.00000000000000000000, 4.00000000000000000000, 4.00000000000000000000, 4.00000000000000000000, 4.00000000000000000000, 4.00000000000000000000, 4.00000000000000000000, 4.00000000000000000000, 4.00000000000000000000, 4.00000000000000000000, 1675.00000000000000000000, 1678.00000000000000000000, 0.00000000000000000000
125.00000000000000000000, 0.00000000000000000000, 4291.79476684680960000000, 4470.25630094439480000000, 4387.69220039924680000000, 5008.71782623883250000000, 4309.23066385634320000000, 4347.69220137737470000000, 4058.46143921921930000000, 4440.51271192813060000000, 4475.38450594719870000000, 4797.43578012330000000000, 4201.02553829717540000000, 4039.99990120912430000000, 4063.58964422202370000000, 4383.58963639700410000000, 398.00000000000000000000, 4.00000000000000000000, 4.00000000000000000000, 4.00000000000000000000, 4.00000000000000000000, 4.00000000000000000000, 3.00000000000000000000, 4.00000000000000000000, 4.00000000000000000000, 4.00000000000000000000, 4.00000000000000000000, 4.00000000000000000000, 4.00000000000000000000, 4.00000000000000000000, 4.00000000000000000000, 4.00000000000000000000, 4.00000000000000000000, 1673.00000000000000000000, 1679.00000000000000000000, 0.00000000000000000000
126.00000000000000000000, 0.00000000000000000000, 4292.30758734708980000000, 4473.84604444635720000000, 4387.69220039924680000000, 5011.28192874023440000000, 4307.17938185522140000000, 4349.23066287821620000000, 4059.99990072006090000000, 4442.05117342897120000000, 4485.12809545252640000000, 4795.38449812217820000000, 4201.53835879745570000000, 4042.05118321024610000000, 4064.10246472230390000000, 4383.07681589672300000000, 444.00000000000000000000, 4.00000000000000000000, 4.00000000000000000000, 4.00000000000000000000, 4.00000000000000000000, 4.00000000000000000000, 3.00000000000000000000, 4.00000000000000000000, 4.00000000000000000000, 4.00000000000000000000, 4.00000000000000000000, 4.00000000000000000000, 4.00000000000000000000, 4.00000000000000000000, 4.00000000000000000000, 4.00000000000000000000, 4.00000000000000000000, 1673.00000000000000000000, 1679.00000000000000000000, 0.00000000000000000000
127.00000000000000000000, 0.00000000000000000000, 4296.41015134933330000000, 4474.35886494663740000000, 4394.87168740317340000000, 5012.82039024107510000000, 4306.15374085466100000000, 4352.82040638017860000000, 4069.23066972510830000000, 4444.61527593037320000000, 4491.28194145589170000000, 4806.66654912834750000000, 4213.33323030390510000000, 4049.23067021417180000000, 4072.30759272679100000000, 4392.82040540205160000000, 400.00000000000000000000, 4.00000000000000000000, 4.00000000000000000000, 4.00000000000000000000, 4.00000000000000000000, 4.00000000000000000000, 3.00000000000000000000, 4.00000000000000000000, 4.00000000000000000000, 4.00000000000000000000, 4.00000000000000000000, 4.00000000000000000000, 4.00000000000000000000, 4.00000000000000000000, 4.00000000000000000000, 4.00000000000000000000, 4.00000000000000000000, 1672.00000000000000000000, 1679.00000000000000000000, 0.00000000000000000000
128.00000000000000000000, 0.00000000000000000000, 4302.56399735269770000000, 4475.38450594719870000000, 4400.51271290625750000000, 5013.84603124163640000000, 4303.58963835325900000000, 4350.25630387877660000000, 4069.74349022538850000000, 4451.79476293429890000000, 4488.20501845420860000000, 4807.69219012890880000000, 4215.89733280530710000000, 4054.87169571725640000000, 4077.94861822987510000000, 4396.41014890401400000000, 414.00000000000000000000, 4.00000000000000000000, 4.00000000000000000000, 4.00000000000000000000, 4.00000000000000000000, 4.00000000000000000000, 3.00000000000000000000, 4.00000000000000000000, 4.00000000000000000000, 4.00000000000000000000, 4.00000000000000000000, 4.00000000000000000000, 4.00000000000000000000, 4.00000000000000000000, 4.00000000000000000000, 4.00000000000000000000, 4.00000000000000000000, 1673.00000000000000000000, 1679.00000000000000000000, 0.00000000000000000000
0.00000000000000000000, 0.00000000000000000000, 4312.82040735830650000000, 4477.43578794832050000000, 4406.15373840934260000000, 5021.02551824556210000000, 4304.10245885353920000000, 4349.74348337849640000000, 4069.23066972510830000000, 4457.43578843738400000000, 4488.71783895448970000000, 4805.64090812778700000000, 4214.35887130446640000000, 4059.48708021978020000000, 4078.97425923043600000000, 4399.99989240597730000000, 408.00000000000000000000, 4.00000000000000000000, 4.00000000000000000000, 4.00000000000000000000, 4.00000000000000000000, 4.00000000000000000000, 3.00000000000000000000, 4.00000000000000000000, 4.00000000000000000000, 4.00000000000000000000, 4.00000000000000000000, 4.00000000000000000000, 4.00000000000000000000, 4.00000000000000000000, 4.00000000000000000000, 4.00000000000000000000, 4.00000000000000000000, 1671.00000000000000000000, 1680.00000000000000000000, 0.00000000000000000000
1.00000000000000000000, 0.00000000000000000000, 4315.89733035998870000000, 4477.43578794832050000000, 4411.28194341214660000000, 5021.02551824556210000000, 4305.64092035438080000000, 4354.35886788102020000000, 4073.33323372735140000000, 4456.41014743682260000000, 4489.74347995505010000000, 4811.79475413115230000000, 4218.46143530671000000000, 4063.58964422202370000000, 4083.58964373295980000000, 4409.74348191130500000000, 444.00000000000000000000, 4.00000000000000000000, 4.00000000000000000000, 4.00000000000000000000, 4.00000000000000000000, 4.00000000000000000000, 3.00000000000000000000, 4.00000000000000000000, 4.00000000000000000000, 4.00000000000000000000, 4.00000000000000000000, 4.00000000000000000000, 4.00000000000000000000, 4.00000000000000000000, 4.00000000000000000000, 4.00000000000000000000, 4.00000000000000000000, 1672.00000000000000000000, 1681.00000000000000000000, 0.00000000000000000000
2.00000000000000000000, 0.00000000000000000000, 4315.38450985970850000000, 4476.92296744803930000000, 4413.33322541326830000000, 5016.92295424331860000000, 4307.17938185522140000000, 4356.92297038242210000000, 4068.71784922482770000000, 4450.76912193373850000000, 4486.15373645308680000000, 4815.38449763311470000000, 4220.51271730783080000000, 4066.66656722370640000000, 4089.23066923604440000000, 4415.38450741439010000000, 415.00000000000000000000, 4.00000000000000000000, 4.00000000000000000000, 4.00000000000000000000, 4.00000000000000000000, 4.00000000000000000000, 3.00000000000000000000, 4.00000000000000000000, 4.00000000000000000000, 4.00000000000000000000, 4.00000000000000000000, 4.00000000000000000000, 4.00000000000000000000, 4.00000000000000000000, 4.00000000000000000000, 4.00000000000000000000, 4.00000000000000000000, 1670.00000000000000000000, 1682.00000000000000000000, 0.00000000000000000000
3.00000000000000000000, 0.00000000000000000000, 4319.99989436223220000000, 4479.48706994944220000000, 4412.30758441270700000000, 5022.05115924612260000000, 4314.35886885914720000000, 4355.38450888158060000000, 4064.10246472230390000000, 4447.69219893205630000000, 4489.74347995505010000000, 4815.38449763311470000000, 4221.02553780811190000000, 4065.64092622314550000000, 4088.20502823548350000000, 4415.38450741439010000000, 453.00000000000000000000, 4.00000000000000000000, 4.00000000000000000000, 4.00000000000000000000, 4.00000000000000000000, 4.00000000000000000000, 3.00000000000000000000, 4.00000000000000000000, 4.00000000000000000000, 4.00000000000000000000, 4.00000000000000000000, 4.00000000000000000000, 4.00000000000000000000, 4.00000000000000000000, 4.00000000000000000000, 4.00000000000000000000, 4.00000000000000000000, 1672.00000000000000000000, 1684.00000000000000000000, 0.00000000000000000000
4.00000000000000000000, 0.00000000000000000000, 4318.97425336167090000000, 4481.02553145028290000000, 4408.71784091074460000000, 5026.15372324836610000000, 4316.41015086026890000000, 4355.38450888158060000000, 4067.17938772398660000000, 4446.66655793149490000000, 4487.69219795392840000000, 4814.87167713283450000000, 4219.99989680755060000000, 4061.53836222090190000000, 4082.56400273239930000000, 4412.82040491298720000000, 468.00000000000000000000, 4.00000000000000000000, 4.00000000000000000000, 4.00000000000000000000, 4.00000000000000000000, 4.00000000000000000000, 3.00000000000000000000, 4.00000000000000000000, 4.00000000000000000000, 4.00000000000000000000, 4.00000000000000000000, 4.00000000000000000000, 4.00000000000000000000, 4.00000000000000000000, 4.00000000000000000000, 4.00000000000000000000, 4.00000000000000000000, 1672.00000000000000000000, 1683.00000000000000000000, 0.00000000000000000000
5.00000000000000000000, 0.00000000000000000000, 4311.79476635774520000000, 4477.94860844860070000000, 4403.58963590793970000000, 5019.99987724500170000000, 4309.23066385634320000000, 4356.92297038242210000000, 4067.69220822426720000000, 4443.07681442953250000000, 4479.99989044972240000000, 4810.25629263031080000000, 4213.84605080418620000000, 4056.92297771837820000000, 4076.92297722931470000000, 4407.69219991018330000000, 330.00000000000000000000, 4.00000000000000000000, 4.00000000000000000000, 4.00000000000000000000, 4.00000000000000000000, 4.00000000000000000000, 3.00000000000000000000, 4.00000000000000000000, 4.00000000000000000000, 4.00000000000000000000, 4.00000000000000000000, 4.00000000000000000000, 4.00000000000000000000, 4.00000000000000000000, 4.00000000000000000000, 4.00000000000000000000, 4.00000000000000000000, 1671.00000000000000000000, 1685.00000000000000000000, 0.00000000000000000000
6.00000000000000000000, 0.00000000000000000000, 4310.76912535718470000000, 4474.87168544691850000000, 4403.07681540765950000000, 5014.87167224219680000000, 4307.69220235550260000000, 4353.84604738073990000000, 4065.64092622314550000000, 4441.53835292869100000000, 4481.53835195056310000000, 4808.71783112946920000000, 4212.82040980362490000000, 4051.28195221529360000000, 4071.79477222651030000000, 4403.07681540765950000000, 452.00000000000000000000, 4.00000000000000000000, 4.00000000000000000000, 4.00000000000000000000, 4.00000000000000000000, 4.00000000000000000000, 3.00000000000000000000, 4.00000000000000000000, 4.00000000000000000000, 4.00000000000000000000, 4.00000000000000000000, 4.00000000000000000000, 4.00000000000000000000, 4.00000000000000000000, 4.00000000000000000000, 4.00000000000000000000, 4.00000000000000000000, 1672.00000000000000000000, 1685.00000000000000000000, 0.00000000000000000000
7.00000000000000000000, 0.00000000000000000000, 4310.76912535718470000000, 4469.74348044411360000000, 4397.43578990457540000000, 5010.76910823995330000000, 4305.12809985409970000000, 4344.61527837569250000000, 4060.51272122034110000000, 4439.99989142784940000000, 4481.53835195056310000000, 4809.74347213003060000000, 4214.87169180474670000000, 4045.64092671220900000000, 4070.76913122594940000000, 4397.94861040485560000000, 422.00000000000000000000, 4.00000000000000000000, 4.00000000000000000000, 4.00000000000000000000, 4.00000000000000000000, 4.00000000000000000000, 3.00000000000000000000, 4.00000000000000000000, 4.00000000000000000000, 4.00000000000000000000, 4.00000000000000000000, 4.00000000000000000000, 4.00000000000000000000, 4.00000000000000000000, 4.00000000000000000000, 4.00000000000000000000, 4.00000000000000000000, 1672.00000000000000000000, 1686.00000000000000000000, 0.00000000000000000000
8.00000000000000000000, 0.00000000000000000000, 4307.17938185522140000000, 4468.20501894327300000000, 4391.28194390121010000000, 5008.20500573855130000000, 4296.92297184961350000000, 4343.07681687485090000000, 4057.94861871893910000000, 4441.02553242841080000000, 4480.51271095000270000000, 4810.25629263031080000000, 4213.84605080418620000000, 4048.71784971389160000000, 4080.51272073127760000000, 4398.46143090513580000000, 370.00000000000000000000, 4.00000000000000000000, 4.00000000000000000000, 4.00000000000000000000, 4.00000000000000000000, 4.00000000000000000000, 3.00000000000000000000, 4.00000000000000000000, 4.00000000000000000000, 4.00000000000000000000, 4.00000000000000000000, 4.00000000000000000000, 4.00000000000000000000, 4.00000000000000000000, 4.00000000000000000000, 4.00000000000000000000, 4.00000000000000000000, 1671.00000000000000000000, 1686.00000000000000000000, 0.00000000000000000000
9.00000000000000000000, 0.00000000000000000000, 4309.74348435662340000000, 4476.41014694775910000000, 4398.46143090513580000000, 5019.48705674472060000000, 4299.48707435101550000000, 4351.79476537961820000000, 4070.25631072566920000000, 4448.20501943233650000000, 4490.25630045533030000000, 4815.38449763311470000000, 4219.99989680755060000000, 4058.46143921921930000000, 4093.33323323828790000000, 4411.28194341214660000000, 413.00000000000000000000, 4.00000000000000000000, 4.00000000000000000000, 4.00000000000000000000, 4.00000000000000000000, 4.00000000000000000000, 3.00000000000000000000, 4.00000000000000000000, 4.00000000000000000000, 4.00000000000000000000, 4.00000000000000000000, 4.00000000000000000000, 4.00000000000000000000, 4.00000000000000000000, 4.00000000000000000000, 4.00000000000000000000, 4.00000000000000000000, 1672.00000000000000000000, 1686.00000000000000000000, 0.00000000000000000000
10.00000000000000000000, 0.00000000000000000000, 4313.33322785858670000000, 4480.51271095000270000000, 4404.10245640822090000000, 5026.66654374864630000000, 4307.69220235550260000000, 4356.92297038242210000000, 4077.94861822987510000000, 4452.30758343458000000000, 4495.89732595841540000000, 4815.38449763311470000000, 4226.66656331119610000000, 4060.51272122034110000000, 4093.33323323828790000000, 4416.41014841495050000000, 444.00000000000000000000, 4.00000000000000000000, 4.00000000000000000000, 4.00000000000000000000, 4.00000000000000000000, 4.00000000000000000000, 3.00000000000000000000, 4.00000000000000000000, 4.00000000000000000000, 4.00000000000000000000, 4.00000000000000000000, 4.00000000000000000000, 4.00000000000000000000, 4.00000000000000000000, 4.00000000000000000000, 4.00000000000000000000, 4.00000000000000000000, 1674.00000000000000000000, 1686.00000000000000000000, 0.00000000000000000000
11.00000000000000000000, 0.00000000000000000000, 4309.74348435662340000000, 4475.38450594719870000000, 4398.46143090513580000000, 5016.92295424331860000000, 4303.07681785297880000000, 4353.84604738073990000000, 4069.74349022538850000000, 4447.69219893205630000000, 4489.23065945476990000000, 4810.25629263031080000000, 4219.48707630727040000000, 4052.82041371613510000000, 4084.10246423324040000000, 4403.58963590793970000000, 400.00000000000000000000, 4.00000000000000000000, 4.00000000000000000000, 4.00000000000000000000, 4.00000000000000000000, 4.00000000000000000000, 3.00000000000000000000, 4.00000000000000000000, 4.00000000000000000000, 4.00000000000000000000, 4.00000000000000000000, 4.00000000000000000000, 4.00000000000000000000, 4.00000000000000000000, 4.00000000000000000000, 4.00000000000000000000, 4.00000000000000000000, 1672.00000000000000000000, 1687.00000000000000000000, 0.00000000000000000000
12.00000000000000000000, 0.00000000000000000000, 4303.58963835325900000000, 4473.33322394607690000000, 4395.38450790345360000000, 5010.25628773967310000000, 4297.94861285017400000000, 4354.35886788102020000000, 4064.10246472230390000000, 4448.71783993261670000000, 4489.74347995505010000000, 4810.25629263031080000000, 4212.30758930334470000000, 4049.74349071445250000000, 4077.94861822987510000000, 4396.92296940429420000000, 414.00000000000000000000, 4.00000000000000000000, 4.00000000000000000000, 4.00000000000000000000, 4.00000000000000000000, 4.00000000000000000000, 3.00000000000000000000, 4.00000000000000000000, 4.00000000000000000000, 4.00000000000000000000, 4.00000000000000000000, 4.00000000000000000000, 4.00000000000000000000, 4.00000000000000000000, 4.00000000000000000000, 4.00000000000000000000, 4.00000000000000000000, 1674.00000000000000000000, 1685.00000000000000000000, 0.00000000000000000000
13.00000000000000000000, 0.00000000000000000000, 4301.53835635213730000000, 4474.35886494663740000000, 4398.46143090513580000000, 5011.79474924051460000000, 4302.56399735269770000000, 4359.99989338410430000000, 4068.71784922482770000000, 4455.38450643626220000000, 4495.38450545813430000000, 4815.89731813339490000000, 4216.41015330558820000000, 4052.82041371613510000000, 4078.46143873015580000000, 4399.99989240597730000000, 398.00000000000000000000, 4.00000000000000000000, 4.00000000000000000000, 4.00000000000000000000, 4.00000000000000000000, 4.00000000000000000000, 3.00000000000000000000, 4.00000000000000000000, 4.00000000000000000000, 4.00000000000000000000, 4.00000000000000000000, 4.00000000000000000000, 4.00000000000000000000, 4.00000000000000000000, 4.00000000000000000000, 4.00000000000000000000, 4.00000000000000000000, 1675.00000000000000000000, 1683.00000000000000000000, 0.00000000000000000000
14.00000000000000000000, 0.00000000000000000000, 4304.61527935381950000000, 4473.33322394607690000000, 4397.94861040485560000000, 5011.79474924051460000000, 4307.17938185522140000000, 4356.92297038242210000000, 4068.20502872454740000000, 4449.74348093317800000000, 4492.82040295673230000000, 4819.48706163535830000000, 4216.92297380586840000000, 4050.25631121473270000000, 4077.94861822987510000000, 4397.94861040485560000000, 444.00000000000000000000, 4.00000000000000000000, 4.00000000000000000000, 4.00000000000000000000, 4.00000000000000000000, 4.00000000000000000000, 3.00000000000000000000, 4.00000000000000000000, 4.00000000000000000000, 4.00000000000000000000, 4.00000000000000000000, 4.00000000000000000000, 4.00000000000000000000, 4.00000000000000000000, 4.00000000000000000000, 4.00000000000000000000, 4.00000000000000000000, 1676.00000000000000000000, 1682.00000000000000000000, 0.00000000000000000000
15.00000000000000000000, 0.00000000000000000000, 4307.69220235550260000000, 4475.38450594719870000000, 4396.92296940429420000000, 5014.35885174191660000000, 4309.23066385634320000000, 4349.23066287821620000000, 4063.58964422202370000000, 4443.07681442953250000000, 4491.79476195617190000000, 4826.15372813900380000000, 4214.87169180474670000000, 4050.25631121473270000000, 4075.38451572847320000000, 4395.38450790345360000000, 400.00000000000000000000, 4.00000000000000000000, 4.00000000000000000000, 4.00000000000000000000, 4.00000000000000000000, 4.00000000000000000000, 3.00000000000000000000, 4.00000000000000000000, 4.00000000000000000000, 4.00000000000000000000, 4.00000000000000000000, 4.00000000000000000000, 4.00000000000000000000, 4.00000000000000000000, 4.00000000000000000000, 4.00000000000000000000, 4.00000000000000000000, 1676.00000000000000000000, 1682.00000000000000000000, 0.00000000000000000000
16.00000000000000000000, 0.00000000000000000000, 4309.74348435662340000000, 4477.94860844860070000000, 4399.48707190569710000000, 5020.51269774528190000000, 4310.25630485690450000000, 4348.71784237793510000000, 4064.10246472230390000000, 4446.15373743121470000000, 4492.82040295673230000000, 4830.76911264152750000000, 4219.48707630727040000000, 4058.46143921921930000000, 4082.05118223211870000000, 4398.97425140541600000000, 0.00000000000000000000, 4.00000000000000000000, 4.00000000000000000000, 4.00000000000000000000, 4.00000000000000000000, 4.00000000000000000000, 3.00000000000000000000, 4.00000000000000000000, 4.00000000000000000000, 4.00000000000000000000, 4.00000000000000000000, 4.00000000000000000000, 4.00000000000000000000, 4.00000000000000000000, 4.00000000000000000000, 4.00000000000000000000, 4.00000000000000000000, 1678.00000000000000000000, 1681.00000000000000000000, 0.00000000000000000000
17.00000000000000000000, 0.00000000000000000000, 4308.71784335606300000000, 4476.41014694775910000000, 4398.46143090513580000000, 5016.41013374303840000000, 4306.66656135494120000000, 4352.30758587989840000000, 4065.12810572286480000000, 4444.10245543009300000000, 4487.17937745364820000000, 4819.48706163535830000000, 4219.48707630727040000000, 4057.94861871893910000000, 4089.74348973632500000000, 4399.48707190569710000000, 0.00000000000000000000, 4.00000000000000000000, 4.00000000000000000000, 4.00000000000000000000, 4.00000000000000000000, 4.00000000000000000000, 3.00000000000000000000, 4.00000000000000000000, 4.00000000000000000000, 4.00000000000000000000, 4.00000000000000000000, 4.00000000000000000000, 4.00000000000000000000, 4.00000000000000000000, 4.00000000000000000000, 4.00000000000000000000, 4.00000000000000000000, 1677.00000000000000000000, 1682.00000000000000000000, 0.00000000000000000000
18.00000000000000000000, 0.00000000000000000000, 4306.15374085466100000000, 4475.38450594719870000000, 4395.38450790345360000000, 5011.79474924051460000000, 4305.64092035438080000000, 4351.28194487933800000000, 4063.58964422202370000000, 4436.41014792588700000000, 4477.43578794832050000000, 4811.28193363087120000000, 4216.41015330558820000000, 4050.25631121473270000000, 4085.12810523380130000000, 4396.41014890401400000000, 0.00000000000000000000, 4.00000000000000000000, 4.00000000000000000000, 4.00000000000000000000, 4.00000000000000000000, 4.00000000000000000000, 3.00000000000000000000, 4.00000000000000000000, 4.00000000000000000000, 4.00000000000000000000, 4.00000000000000000000, 4.00000000000000000000, 4.00000000000000000000, 4.00000000000000000000, 4.00000000000000000000, 4.00000000000000000000, 4.00000000000000000000, 1679.00000000000000000000, 1681.00000000000000000000, 0.00000000000000000000
19.00000000000000000000, 0.00000000000000000000, 4305.64092035438080000000, 4475.38450594719870000000, 4395.89732840373380000000, 5013.33321074135620000000, 4304.61527935381950000000, 4347.17938087709440000000, 4064.61528522258460000000, 4438.97425042728900000000, 4474.35886494663740000000, 4811.28193363087120000000, 4215.89733280530710000000, 4048.20502921361140000000, 4077.94861822987510000000, 4396.92296940429420000000, 0.00000000000000000000, 4.00000000000000000000, 4.00000000000000000000, 4.00000000000000000000, 4.00000000000000000000, 4.00000000000000000000, 3.00000000000000000000, 4.00000000000000000000, 4.00000000000000000000, 4.00000000000000000000, 4.00000000000000000000, 4.00000000000000000000, 4.00000000000000000000, 4.00000000000000000000, 4.00000000000000000000, 4.00000000000000000000, 4.00000000000000000000, 1678.00000000000000000000, 1681.00000000000000000000, 0.00000000000000000000
20.00000000000000000000, 0.00000000000000000000, 4301.53835635213730000000, 4472.30758294551560000000, 4393.84604640261200000000, 5010.25628773967310000000, 4297.43579234989370000000, 4348.20502187765490000000, 4067.17938772398660000000, 4441.53835292869100000000, 4476.41014694775910000000, 4804.10244662694550000000, 4210.76912780250310000000, 4045.12810621192880000000, 4072.82041322707120000000, 4391.28194390121010000000, 0.00000000000000000000, 4.00000000000000000000, 4.00000000000000000000, 4.00000000000000000000, 4.00000000000000000000, 4.00000000000000000000, 3.00000000000000000000, 4.00000000000000000000, 4.00000000000000000000, 4.00000000000000000000, 4.00000000000000000000, 4.00000000000000000000, 4.00000000000000000000, 4.00000000000000000000, 4.00000000000000000000, 4.00000000000000000000, 4.00000000000000000000, 1680.00000000000000000000, 1681.00000000000000000000, 0.00000000000000000000
21.00000000000000000000, 0.00000000000000000000, 4296.92297184961350000000, 4472.82040344579670000000, 4391.28194390121010000000, 5008.71782623883250000000, 4301.53835635213730000000, 4351.79476537961820000000, 4067.69220822426720000000, 4433.84604542448510000000, 4477.94860844860070000000, 4792.82039562077630000000, 4202.56399979801700000000, 4038.97426020856350000000, 4066.15374672342570000000, 4385.12809789784480000000, 0.00000000000000000000, 4.00000000000000000000, 4.00000000000000000000, 4.00000000000000000000, 4.00000000000000000000, 4.00000000000000000000, 3.00000000000000000000, 4.00000000000000000000, 4.00000000000000000000, 4.00000000000000000000, 4.00000000000000000000, 4.00000000000000000000, 4.00000000000000000000, 4.00000000000000000000, 4.00000000000000000000, 4.00000000000000000000, 4.00000000000000000000, 1679.00000000000000000000, 1682.00000000000000000000, 0.00000000000000000000
22.00000000000000000000, 0.00000000000000000000, 4301.02553585185710000000, 4476.41014694775910000000, 4393.33322590233180000000, 5012.82039024107510000000, 4311.28194585746500000000, 4352.30758587989840000000, 4069.74349022538850000000, 4430.76912242280200000000, 4476.92296744803930000000, 4793.84603662133760000000, 4204.61528179913880000000, 4041.02554220968520000000, 4066.15374672342570000000, 4391.79476440149030000000, 0.00000000000000000000, 4.00000000000000000000, 4.00000000000000000000, 4.00000000000000000000, 4.00000000000000000000, 4.00000000000000000000, 3.00000000000000000000, 4.00000000000000000000, 4.00000000000000000000, 4.00000000000000000000, 4.00000000000000000000, 4.00000000000000000000, 4.00000000000000000000, 4.00000000000000000000, 4.00000000000000000000, 4.00000000000000000000, 4.00000000000000000000, 1681.00000000000000000000, 1682.00000000000000000000, 0.00000000000000000000
23.00000000000000000000, 0.00000000000000000000, 4301.02553585185710000000, 4475.38450594719870000000, 4396.41014890401400000000, 5011.28192874023440000000, 4301.53835635213730000000, 4349.74348337849640000000, 4072.82041322707120000000, 4436.92296842616720000000, 4479.48706994944220000000, 4800.51270312498310000000, 4212.30758930334470000000, 4047.17938821305050000000, 4070.76913122594940000000, 4398.97425140541600000000, 0.00000000000000000000, 4.00000000000000000000, 4.00000000000000000000, 4.00000000000000000000, 4.00000000000000000000, 4.00000000000000000000, 3.00000000000000000000, 4.00000000000000000000, 4.00000000000000000000, 4.00000000000000000000, 4.00000000000000000000, 4.00000000000000000000, 4.00000000000000000000, 4.00000000000000000000, 4.00000000000000000000, 4.00000000000000000000, 4.00000000000000000000, 1681.00000000000000000000, 1680.00000000000000000000, 0.00000000000000000000
24.00000000000000000000, 0.00000000000000000000, 4296.92297184961350000000, 4471.28194194495520000000, 4396.92296940429420000000, 5008.20500573855130000000, 4293.33322834765020000000, 4353.84604738073990000000, 4077.43579772959490000000, 4445.64091693093450000000, 4488.20501845420860000000, 4804.61526712722570000000, 4216.41015330558820000000, 4052.82041371613510000000, 4070.76913122594940000000, 4396.92296940429420000000, 0.00000000000000000000, 4.00000000000000000000, 4.00000000000000000000, 4.00000000000000000000, 4.00000000000000000000, 4.00000000000000000000, 3.00000000000000000000, 4.00000000000000000000, 4.00000000000000000000, 4.00000000000000000000, 4.00000000000000000000, 4.00000000000000000000, 4.00000000000000000000, 4.00000000000000000000, 4.00000000000000000000, 4.00000000000000000000, 4.00000000000000000000, 1680.00000000000000000000, 1681.00000000000000000000, 0.00000000000000000000
25.00000000000000000000, 0.00000000000000000000, 4303.58963835325900000000, 4472.30758294551560000000, 4398.97425140541600000000, 5010.25628773967310000000, 4305.64092035438080000000, 4356.92297038242210000000, 4083.58964373295980000000, 4448.71783993261670000000, 4491.79476195617190000000, 4809.74347213003060000000, 4216.92297380586840000000, 4063.07682372174350000000, 4072.82041322707120000000, 4397.94861040485560000000, 0.00000000000000000000, 4.00000000000000000000, 4.00000000000000000000, 4.00000000000000000000, 4.00000000000000000000, 4.00000000000000000000, 3.00000000000000000000, 4.00000000000000000000, 4.00000000000000000000, 4.00000000000000000000, 4.00000000000000000000, 4.00000000000000000000, 4.00000000000000000000, 4.00000000000000000000, 4.00000000000000000000, 4.00000000000000000000, 4.00000000000000000000, 1682.00000000000000000000, 1679.00000000000000000000, 0.00000000000000000000
26.00000000000000000000, 0.00000000000000000000, 4313.33322785858670000000, 4475.89732644747890000000, 4400.51271290625750000000, 5011.79474924051460000000, 4309.23066385634320000000, 4349.23066287821620000000, 4078.46143873015580000000, 4436.92296842616720000000, 4480.51271095000270000000, 4814.35885663255430000000, 4218.97425580699020000000, 4069.74349022538850000000, 4081.02554123155780000000, 4402.05117440709910000000, 0.00000000000000000000, 4.00000000000000000000, 4.00000000000000000000, 4.00000000000000000000, 4.00000000000000000000, 4.00000000000000000000, 3.00000000000000000000, 4.00000000000000000000, 4.00000000000000000000, 4.00000000000000000000, 4.00000000000000000000, 4.00000000000000000000, 4.00000000000000000000, 4.00000000000000000000, 4.00000000000000000000, 4.00000000000000000000, 4.00000000000000000000, 1681.00000000000000000000, 1679.00000000000000000000, 0.00000000000000000000
27.00000000000000000000, 0.00000000000000000000, 4313.84604835886690000000, 4476.92296744803930000000, 4401.02553340653780000000, 5012.82039024107510000000, 4299.99989485129570000000, 4342.56399637457070000000, 4064.61528522258460000000, 4425.64091741999800000000, 4473.84604444635720000000, 4815.38449763311470000000, 4221.53835830839220000000, 4071.28195172623010000000, 4088.20502823548350000000, 4406.66655890962280000000, 0.00000000000000000000, 4.00000000000000000000, 4.00000000000000000000, 4.00000000000000000000, 4.00000000000000000000, 4.00000000000000000000, 3.00000000000000000000, 4.00000000000000000000, 4.00000000000000000000, 4.00000000000000000000, 4.00000000000000000000, 4.00000000000000000000, 4.00000000000000000000, 4.00000000000000000000, 4.00000000000000000000, 4.00000000000000000000, 4.00000000000000000000, 1681.00000000000000000000, 1677.00000000000000000000, 0.00000000000000000000
28.00000000000000000000, 0.00000000000000000000, 4310.25630485690450000000, 4475.38450594719870000000, 4401.02553340653780000000, 5012.30756974079490000000, 4301.02553585185710000000, 4346.15373987653310000000, 4064.10246472230390000000, 4428.71784042168020000000, 4475.38450594719870000000, 4813.33321563199300000000, 4222.56399930895260000000, 4074.87169522819290000000, 4087.69220773520330000000, 4412.82040491298720000000, 0.00000000000000000000, 4.00000000000000000000, 4.00000000000000000000, 4.00000000000000000000, 4.00000000000000000000, 4.00000000000000000000, 3.00000000000000000000, 4.00000000000000000000, 4.00000000000000000000, 4.00000000000000000000, 4.00000000000000000000, 4.00000000000000000000, 4.00000000000000000000, 4.00000000000000000000, 4.00000000000000000000, 4.00000000000000000000, 4.00000000000000000000, 1682.00000000000000000000, 1675.00000000000000000000, 0.00000000000000000000
29.00000000000000000000, 0.00000000000000000000, 4311.79476635774520000000, 4474.87168544691850000000, 4400.51271290625750000000, 5010.25628773967310000000, 4309.23066385634320000000, 4352.82040638017860000000, 4075.38451572847320000000, 4429.23066092196130000000, 4473.33322394607690000000, 4809.23065162974940000000, 4223.07681980923370000000, 4077.43579772959490000000, 4084.61528473352060000000, 4412.30758441270700000000, 0.00000000000000000000, 4.00000000000000000000, 4.00000000000000000000, 4.00000000000000000000, 4.00000000000000000000, 4.00000000000000000000, 3.00000000000000000000, 4.00000000000000000000, 4.00000000000000000000, 4.00000000000000000000, 4.00000000000000000000, 4.00000000000000000000, 4.00000000000000000000, 4.00000000000000000000, 4.00000000000000000000, 4.00000000000000000000, 4.00000000000000000000, 1683.00000000000000000000, 1673.00000000000000000000, 0.00000000000000000000
30.00000000000000000000, 0.00000000000000000000, 4314.35886885914720000000, 4475.38450594719870000000, 4404.10245640822090000000, 5015.38449274247710000000, 4306.15374085466100000000, 4352.30758587989840000000, 4081.53836173183840000000, 4425.12809691971780000000, 4474.87168544691850000000, 4810.76911313059100000000, 4222.05117880867240000000, 4074.87169522819290000000, 4081.02554123155780000000, 4408.20502041046350000000, 0.00000000000000000000, 4.00000000000000000000, 4.00000000000000000000, 4.00000000000000000000, 4.00000000000000000000, 4.00000000000000000000, 3.00000000000000000000, 4.00000000000000000000, 4.00000000000000000000, 4.00000000000000000000, 4.00000000000000000000, 4.00000000000000000000, 4.00000000000000000000, 4.00000000000000000000, 4.00000000000000000000, 4.00000000000000000000, 4.00000000000000000000, 1682.00000000000000000000, 1671.00000000000000000000, 0.00000000000000000000
31.00000000000000000000, 0.00000000000000000000, 4316.92297136055000000000, 4476.92296744803930000000, 4407.17937940990300000000, 5018.97423624444040000000, 4298.46143335045510000000, 4341.02553487372920000000, 4071.28195172623010000000, 4426.66655842055840000000, 4478.97424944916110000000, 4815.38449763311470000000, 4217.43579430614860000000, 4071.79477222651030000000, 4079.48707973071670000000, 4404.61527690850110000000, 0.00000000000000000000, 4.00000000000000000000, 4.00000000000000000000, 4.00000000000000000000, 4.00000000000000000000, 4.00000000000000000000, 3.00000000000000000000, 4.00000000000000000000, 4.00000000000000000000, 4.00000000000000000000, 4.00000000000000000000, 4.00000000000000000000, 4.00000000000000000000, 4.00000000000000000000, 4.00000000000000000000, 4.00000000000000000000, 4.00000000000000000000, 1683.00000000000000000000, 1671.00000000000000000000, 0.00000000000000000000
32.00000000000000000000, 0.00000000000000000000, 4312.82040735830650000000, 4475.38450594719870000000, 4399.99989240597730000000, 5011.28192874023440000000, 4299.48707435101550000000, 4338.46143237232720000000, 4058.46143921921930000000, 4425.64091741999800000000, 4474.87168544691850000000, 4808.20501062918900000000, 4213.33323030390510000000, 4066.15374672342570000000, 4076.92297722931470000000, 4397.94861040485560000000, 0.00000000000000000000, 4.00000000000000000000, 4.00000000000000000000, 4.00000000000000000000, 4.00000000000000000000, 4.00000000000000000000, 3.00000000000000000000, 4.00000000000000000000, 4.00000000000000000000, 4.00000000000000000000, 4.00000000000000000000, 4.00000000000000000000, 4.00000000000000000000, 4.00000000000000000000, 4.00000000000000000000, 4.00000000000000000000, 4.00000000000000000000, 1683.00000000000000000000, 1670.00000000000000000000, 0.00000000000000000000
33.00000000000000000000, 0.00000000000000000000, 4301.02553585185710000000, 4463.07681394046810000000, 4391.79476440149030000000, 5003.07680073574740000000, 4305.12809985409970000000, 4350.25630387877660000000, 4065.64092622314550000000, 4429.23066092196130000000, 4477.43578794832050000000, 4798.46142112386130000000, 4210.76912780250310000000, 4056.41015721809800000000, 4069.74349022538850000000, 4391.28194390121010000000, 0.00000000000000000000, 4.00000000000000000000, 4.00000000000000000000, 4.00000000000000000000, 4.00000000000000000000, 4.00000000000000000000, 3.00000000000000000000, 4.00000000000000000000, 4.00000000000000000000, 4.00000000000000000000, 4.00000000000000000000, 4.00000000000000000000, 4.00000000000000000000, 4.00000000000000000000, 4.00000000000000000000, 4.00000000000000000000, 4.00000000000000000000, 1683.00000000000000000000, 1671.00000000000000000000, 0.00000000000000000000
34.00000000000000000000, 0.00000000000000000000, 4301.53835635213730000000, 4460.51271143906620000000, 4398.97425140541600000000, 5007.69218523827110000000, 4309.74348435662340000000, 4353.33322688045880000000, 4075.89733622875380000000, 4442.05117342897120000000, 4486.15373645308680000000, 4806.66654912834750000000, 4212.30758930334470000000, 4061.02554172062170000000, 4071.79477222651030000000, 4399.99989240597730000000, 0.00000000000000000000, 4.00000000000000000000, 4.00000000000000000000, 4.00000000000000000000, 4.00000000000000000000, 4.00000000000000000000, 3.00000000000000000000, 4.00000000000000000000, 4.00000000000000000000, 4.00000000000000000000, 4.00000000000000000000, 4.00000000000000000000, 4.00000000000000000000, 4.00000000000000000000, 4.00000000000000000000, 4.00000000000000000000, 4.00000000000000000000, 1683.00000000000000000000, 1670.00000000000000000000, 0.00000000000000000000
35.00000000000000000000, 0.00000000000000000000, 4314.35886885914720000000, 4478.97424944916110000000, 4409.74348191130500000000, 5019.99987724500170000000, 4310.76912535718470000000, 4342.05117587429050000000, 4068.20502872454740000000, 4441.53835292869100000000, 4479.99989044972240000000, 4816.41013863367610000000, 4219.99989680755060000000, 4074.35887472791230000000, 4087.17938723492310000000, 4412.82040491298720000000, 0.00000000000000000000, 4.00000000000000000000, 4.00000000000000000000, 4.00000000000000000000, 4.00000000000000000000, 4.00000000000000000000, 3.00000000000000000000, 4.00000000000000000000, 4.00000000000000000000, 4.00000000000000000000, 4.00000000000000000000, 4.00000000000000000000, 4.00000000000000000000, 4.00000000000000000000, 4.00000000000000000000, 4.00000000000000000000, 4.00000000000000000000, 1683.00000000000000000000, 1672.00000000000000000000, 0.00000000000000000000
36.00000000000000000000, 0.00000000000000000000, 4322.56399686363420000000, 4492.82040295673230000000, 4409.74348191130500000000, 5023.58962074696410000000, 4308.71784335606300000000, 4336.41015037120540000000, 4064.61528522258460000000, 4435.89732742560680000000, 4477.43578794832050000000, 4811.28193363087120000000, 4229.23066581259810000000, 4074.87169522819290000000, 4092.82041273800720000000, 4414.35886641382880000000, 0.00000000000000000000, 4.00000000000000000000, 4.00000000000000000000, 4.00000000000000000000, 4.00000000000000000000, 4.00000000000000000000, 3.00000000000000000000, 4.00000000000000000000, 4.00000000000000000000, 4.00000000000000000000, 4.00000000000000000000, 4.00000000000000000000, 4.00000000000000000000, 4.00000000000000000000, 4.00000000000000000000, 4.00000000000000000000, 4.00000000000000000000, 1684.00000000000000000000, 1671.00000000000000000000, 0.00000000000000000000
37.00000000000000000000, 0.00000000000000000000, 4325.12809936503620000000, 4493.84604395729370000000, 4410.76912291186640000000, 5022.56397974640370000000, 4306.66656135494120000000, 4341.53835537400940000000, 4077.43579772959490000000, 4446.15373743121470000000, 4490.76912095561060000000, 4815.38449763311470000000, 4232.82040931456140000000, 4076.41015672903400000000, 4093.84605373856810000000, 4422.05117391803470000000, 0.00000000000000000000, 4.00000000000000000000, 4.00000000000000000000, 4.00000000000000000000, 4.00000000000000000000, 4.00000000000000000000, 3.00000000000000000000, 4.00000000000000000000, 4.00000000000000000000, 4.00000000000000000000, 4.00000000000000000000, 4.00000000000000000000, 4.00000000000000000000, 4.00000000000000000000, 4.00000000000000000000, 4.00000000000000000000, 4.00000000000000000000, 1682.00000000000000000000, 1674.00000000000000000000, 0.00000000000000000000
38.00000000000000000000, 0.00000000000000000000, 4328.20502236671840000000, 4494.35886445757390000000, 4415.38450741439010000000, 5025.12808224780570000000, 4309.74348435662340000000, 4345.12809887597270000000, 4080.51272073127760000000, 4450.25630143345820000000, 4495.38450545813430000000, 4827.69218963984530000000, 4232.30758881428120000000, 4083.07682323267950000000, 4105.64092524501760000000, 4431.28194292308220000000, 0.00000000000000000000, 4.00000000000000000000, 4.00000000000000000000, 4.00000000000000000000, 4.00000000000000000000, 4.00000000000000000000, 3.00000000000000000000, 4.00000000000000000000, 4.00000000000000000000, 4.00000000000000000000, 4.00000000000000000000, 4.00000000000000000000, 4.00000000000000000000, 4.00000000000000000000, 4.00000000000000000000, 4.00000000000000000000, 4.00000000000000000000, 1683.00000000000000000000, 1675.00000000000000000000, 0.00000000000000000000
39.00000000000000000000, 0.00000000000000000000, 4328.20502236671840000000, 4494.87168495785410000000, 4413.33322541326830000000, 5024.10244124724430000000, 4310.25630485690450000000, 4347.17938087709440000000, 4074.87169522819290000000, 4442.56399392925140000000, 4487.17937745364820000000, 4822.05116413676020000000, 4231.79476831400010000000, 4081.02554123155780000000, 4108.20502774641950000000, 4425.12809691971780000000, 0.00000000000000000000, 4.00000000000000000000, 4.00000000000000000000, 4.00000000000000000000, 4.00000000000000000000, 4.00000000000000000000, 3.00000000000000000000, 4.00000000000000000000, 4.00000000000000000000, 4.00000000000000000000, 4.00000000000000000000, 4.00000000000000000000, 4.00000000000000000000, 4.00000000000000000000, 4.00000000000000000000, 4.00000000000000000000, 4.00000000000000000000, 1681.00000000000000000000, 1676.00000000000000000000, 0.00000000000000000000
40.00000000000000000000, 0.00000000000000000000, 4328.20502236671840000000, 4492.82040295673230000000, 4412.30758441270700000000, 5022.05115924612260000000, 4310.76912535718470000000, 4351.28194487933800000000, 4079.99990023099690000000, 4445.12809643065430000000, 4487.69219795392840000000, 4812.82039513171280000000, 4233.33322981484160000000, 4083.58964373295980000000, 4097.94861774081160000000, 4420.51271241719410000000, 0.00000000000000000000, 4.00000000000000000000, 4.00000000000000000000, 4.00000000000000000000, 4.00000000000000000000, 4.00000000000000000000, 3.00000000000000000000, 4.00000000000000000000, 4.00000000000000000000, 4.00000000000000000000, 4.00000000000000000000, 4.00000000000000000000, 4.00000000000000000000, 4.00000000000000000000, 4.00000000000000000000, 4.00000000000000000000, 4.00000000000000000000, 1681.00000000000000000000, 1676.00000000000000000000, 0.00000000000000000000
41.00000000000000000000, 0.00000000000000000000, 4327.69220186643820000000, 4485.12809545252640000000, 4414.35886641382880000000, 5021.02551824556210000000, 4307.69220235550260000000, 4351.79476537961820000000, 4083.58964373295980000000, 4448.71783993261670000000, 4491.28194145589170000000, 4809.23065162974940000000, 4227.17938381147630000000, 4089.74348973632500000000, 4090.25631023660530000000, 4422.56399441831580000000, 0.00000000000000000000, 4.00000000000000000000, 4.00000000000000000000, 4.00000000000000000000, 4.00000000000000000000, 4.00000000000000000000, 3.00000000000000000000, 4.00000000000000000000, 4.00000000000000000000, 4.00000000000000000000, 4.00000000000000000000, 4.00000000000000000000, 4.00000000000000000000, 4.00000000000000000000, 4.00000000000000000000, 4.00000000000000000000, 4.00000000000000000000, 1681.00000000000000000000, 1676.00000000000000000000, 0.00000000000000000000
42.00000000000000000000, 0.00000000000000000000, 4316.92297136055000000000, 4473.33322394607690000000, 4406.66655890962280000000, 5012.82039024107510000000, 4295.38451034877200000000, 4352.30758587989840000000, 4079.48707973071670000000, 4446.15373743121470000000, 4490.25630045533030000000, 4804.10244662694550000000, 4215.38451230502690000000, 4079.48707973071670000000, 4078.97425923043600000000, 4411.79476391242680000000, 0.00000000000000000000, 4.00000000000000000000, 4.00000000000000000000, 4.00000000000000000000, 4.00000000000000000000, 4.00000000000000000000, 3.00000000000000000000, 4.00000000000000000000, 4.00000000000000000000, 4.00000000000000000000, 4.00000000000000000000, 4.00000000000000000000, 4.00000000000000000000, 4.00000000000000000000, 4.00000000000000000000, 4.00000000000000000000, 4.00000000000000000000, 1681.00000000000000000000, 1677.00000000000000000000, 0.00000000000000000000
43.00000000000000000000, 0.00000000000000000000, 4311.79476635774520000000, 4470.76912144467500000000, 4399.48707190569710000000, 5004.61526223658890000000, 4292.82040784737000000000, 4351.79476537961820000000, 4074.87169522819290000000, 4447.69219893205630000000, 4492.30758245645210000000, 4806.15372862806730000000, 4214.35887130446640000000, 4071.28195172623010000000, 4072.30759272679100000000, 4406.15373840934260000000, 0.00000000000000000000, 4.00000000000000000000, 4.00000000000000000000, 4.00000000000000000000, 4.00000000000000000000, 4.00000000000000000000, 3.00000000000000000000, 4.00000000000000000000, 4.00000000000000000000, 4.00000000000000000000, 4.00000000000000000000, 4.00000000000000000000, 4.00000000000000000000, 4.00000000000000000000, 4.00000000000000000000, 4.00000000000000000000, 4.00000000000000000000, 1680.00000000000000000000, 1678.00000000000000000000, 0.00000000000000000000
44.00000000000000000000, 0.00000000000000000000, 4320.51271486251240000000, 4474.35886494663740000000, 4403.58963590793970000000, 5008.20500573855130000000, 4297.43579234989370000000, 4344.10245787541130000000, 4069.23066972510830000000, 4445.64091693093450000000, 4488.20501845420860000000, 4813.33321563199300000000, 4220.51271730783080000000, 4078.97425923043600000000, 4084.10246423324040000000, 4415.89732791467030000000, 0.00000000000000000000, 4.00000000000000000000, 4.00000000000000000000, 4.00000000000000000000, 4.00000000000000000000, 4.00000000000000000000, 3.00000000000000000000, 4.00000000000000000000, 4.00000000000000000000, 4.00000000000000000000, 4.00000000000000000000, 4.00000000000000000000, 4.00000000000000000000, 4.00000000000000000000, 4.00000000000000000000, 4.00000000000000000000, 4.00000000000000000000, 1679.00000000000000000000, 1679.00000000000000000000, 0.00000000000000000000
45.00000000000000000000, 0.00000000000000000000, 4324.61527886475600000000, 4472.30758294551560000000, 4406.66655890962280000000, 5011.28192874023440000000, 4292.82040784737000000000, 4334.87168887036390000000, 4066.66656722370640000000, 4442.05117342897120000000, 4481.02553145028290000000, 4811.79475413115230000000, 4220.51271730783080000000, 4079.48707973071670000000, 4090.25631023660530000000, 4417.43578941551100000000, 0.00000000000000000000, 4.00000000000000000000, 4.00000000000000000000, 4.00000000000000000000, 4.00000000000000000000, 4.00000000000000000000, 3.00000000000000000000, 4.00000000000000000000, 4.00000000000000000000, 4.00000000000000000000, 4.00000000000000000000, 4.00000000000000000000, 4.00000000000000000000, 4.00000000000000000000, 4.00000000000000000000, 4.00000000000000000000, 4.00000000000000000000, 1680.00000000000000000000, 1678.00000000000000000000, 0.00000000000000000000
46.00000000000000000000, 0.00000000000000000000, 4325.12809936503620000000, 4473.84604444635720000000, 4408.20502041046350000000, 5011.79474924051460000000, 4289.74348484568780000000, 4339.48707337288760000000, 4070.76913122594940000000, 4443.07681442953250000000, 4480.51271095000270000000, 4811.28193363087120000000, 4216.41015330558820000000, 4073.84605422763210000000, 4081.53836173183840000000, 4419.48707141663270000000, 0.00000000000000000000, 4.00000000000000000000, 4.00000000000000000000, 4.00000000000000000000, 4.00000000000000000000, 4.00000000000000000000, 3.00000000000000000000, 4.00000000000000000000, 4.00000000000000000000, 4.00000000000000000000, 4.00000000000000000000, 4.00000000000000000000, 4.00000000000000000000, 4.00000000000000000000, 4.00000000000000000000, 4.00000000000000000000, 4.00000000000000000000, 1678.00000000000000000000, 1681.00000000000000000000, 0.00000000000000000000
47.00000000000000000000, 0.00000000000000000000, 4327.17938136615790000000, 4472.30758294551560000000, 4412.82040491298720000000, 5011.79474924051460000000, 4295.89733084905220000000, 4346.15373987653310000000, 4073.33323372735140000000, 4442.56399392925140000000, 4479.99989044972240000000, 4810.25629263031080000000, 4219.48707630727040000000, 4077.94861822987510000000, 4076.92297722931470000000, 4425.64091741999800000000, 0.00000000000000000000, 4.00000000000000000000, 4.00000000000000000000, 4.00000000000000000000, 4.00000000000000000000, 4.00000000000000000000, 3.00000000000000000000, 4.00000000000000000000, 4.00000000000000000000, 4.00000000000000000000, 4.00000000000000000000, 4.00000000000000000000, 4.00000000000000000000, 4.00000000000000000000, 4.00000000000000000000, 4.00000000000000000000, 4.00000000000000000000, 1680.00000000000000000000, 1681.00000000000000000000, 0.00000000000000000000
48.00000000000000000000, 0.00000000000000000000, 4322.05117636335400000000, 4462.56399344018790000000, 4407.17937940990300000000, 5008.71782623883250000000, 4295.38451034877200000000, 4342.56399637457070000000, 4078.46143873015580000000, 4439.99989142784940000000, 4473.84604444635720000000, 4799.48706212442180000000, 4221.02553780811190000000, 4077.94861822987510000000, 4077.94861822987510000000, 4418.97425091635250000000, 0.00000000000000000000, 4.00000000000000000000, 4.00000000000000000000, 4.00000000000000000000, 4.00000000000000000000, 4.00000000000000000000, 3.00000000000000000000, 4.00000000000000000000, 4.00000000000000000000, 4.00000000000000000000, 4.00000000000000000000, 4.00000000000000000000, 4.00000000000000000000, 4.00000000000000000000, 4.00000000000000000000, 4.00000000000000000000, 4.00000000000000000000, 1678.00000000000000000000, 1683.00000000000000000000, 0.00000000000000000000
49.00000000000000000000, 0.00000000000000000000, 4318.97425336167090000000, 4461.53835243962750000000, 4399.48707190569710000000, 5008.20500573855130000000, 4290.76912584624820000000, 4341.02553487372920000000, 4086.15374623436220000000, 4444.10245543009300000000, 4471.79476244523540000000, 4795.38449812217820000000, 4213.84605080418620000000, 4069.23066972510830000000, 4071.79477222651030000000, 4410.76912291186640000000, 0.00000000000000000000, 4.00000000000000000000, 4.00000000000000000000, 4.00000000000000000000, 4.00000000000000000000, 4.00000000000000000000, 3.00000000000000000000, 4.00000000000000000000, 4.00000000000000000000, 4.00000000000000000000, 4.00000000000000000000, 4.00000000000000000000, 4.00000000000000000000, 4.00000000000000000000, 4.00000000000000000000, 4.00000000000000000000, 4.00000000000000000000, 1679.00000000000000000000, 1685.00000000000000000000, 0.00000000000000000000
50.00000000000000000000, 0.00000000000000000000, 4319.48707386195200000000, 4462.56399344018790000000, 4400.51271290625750000000, 5007.17936473799090000000, 4293.84604884793040000000, 4345.12809887597270000000, 4078.46143873015580000000, 4446.15373743121470000000, 4478.46142894888090000000, 4802.05116462582370000000, 4205.64092279969920000000, 4065.12810572286480000000, 4064.10246472230390000000, 4409.74348191130500000000, 0.00000000000000000000, 4.00000000000000000000, 4.00000000000000000000, 4.00000000000000000000, 4.00000000000000000000, 4.00000000000000000000, 3.00000000000000000000, 4.00000000000000000000, 4.00000000000000000000, 4.00000000000000000000, 4.00000000000000000000, 4.00000000000000000000, 4.00000000000000000000, 4.00000000000000000000, 4.00000000000000000000, 4.00000000000000000000, 4.00000000000000000000, 1678.00000000000000000000, 1684.00000000000000000000, 0.00000000000000000000
51.00000000000000000000, 0.00000000000000000000, 4313.84604835886690000000, 4457.94860893766420000000, 4402.05117440709910000000, 5004.10244173630870000000, 4297.43579234989370000000, 4346.66656037681420000000, 4073.33323372735140000000, 4443.58963492981270000000, 4485.64091595280660000000, 4812.30757463143250000000, 4211.28194830278330000000, 4071.79477222651030000000, 4070.25631072566920000000, 4411.79476391242680000000, 0.00000000000000000000, 4.00000000000000000000, 4.00000000000000000000, 4.00000000000000000000, 4.00000000000000000000, 4.00000000000000000000, 3.00000000000000000000, 4.00000000000000000000, 4.00000000000000000000, 4.00000000000000000000, 4.00000000000000000000, 4.00000000000000000000, 4.00000000000000000000, 4.00000000000000000000, 4.00000000000000000000, 4.00000000000000000000, 4.00000000000000000000, 1678.00000000000000000000, 1684.00000000000000000000, 0.00000000000000000000
52.00000000000000000000, 0.00000000000000000000, 4310.25630485690450000000, 4459.48707043850570000000, 4399.48707190569710000000, 5005.64090323714940000000, 4295.38451034877200000000, 4351.28194487933800000000, 4089.23066923604440000000, 4444.61527593037320000000, 4490.25630045533030000000, 4821.02552313619980000000, 4225.64092231063570000000, 4078.46143873015580000000, 4078.97425923043600000000, 4414.35886641382880000000, 0.00000000000000000000, 4.00000000000000000000, 4.00000000000000000000, 4.00000000000000000000, 4.00000000000000000000, 4.00000000000000000000, 3.00000000000000000000, 4.00000000000000000000, 4.00000000000000000000, 4.00000000000000000000, 4.00000000000000000000, 4.00000000000000000000, 4.00000000000000000000, 4.00000000000000000000, 4.00000000000000000000, 4.00000000000000000000, 4.00000000000000000000, 1677.00000000000000000000, 1683.00000000000000000000, 0.00000000000000000000
53.00000000000000000000, 0.00000000000000000000, 4310.25630485690450000000, 4458.46142943794440000000, 4396.92296940429420000000, 5008.20500573855130000000, 4291.79476684680960000000, 4352.30758587989840000000, 4093.33323323828790000000, 4445.64091693093450000000, 4491.28194145589170000000, 4810.76911313059100000000, 4221.02553780811190000000, 4072.82041322707120000000, 4073.33323372735140000000, 4409.23066141102480000000, 0.00000000000000000000, 4.00000000000000000000, 4.00000000000000000000, 4.00000000000000000000, 4.00000000000000000000, 4.00000000000000000000, 3.00000000000000000000, 4.00000000000000000000, 4.00000000000000000000, 4.00000000000000000000, 4.00000000000000000000, 4.00000000000000000000, 4.00000000000000000000, 4.00000000000000000000, 4.00000000000000000000, 4.00000000000000000000, 4.00000000000000000000, 1678.00000000000000000000, 1683.00000000000000000000, 0.00000000000000000000
54.00000000000000000000, 0.00000000000000000000, 4310.76912535718470000000, 4459.48707043850570000000, 4393.84604640261200000000, 5005.64090323714940000000, 4292.82040784737000000000, 4342.56399637457070000000, 4076.92297722931470000000, 4443.07681442953250000000, 4489.74347995505010000000, 4801.02552362526330000000, 4203.58964079857740000000, 4065.12810572286480000000, 4067.69220822426720000000, 4398.97425140541600000000, 0.00000000000000000000, 4.00000000000000000000, 4.00000000000000000000, 4.00000000000000000000, 4.00000000000000000000, 4.00000000000000000000, 3.00000000000000000000, 4.00000000000000000000, 4.00000000000000000000, 4.00000000000000000000, 4.00000000000000000000, 4.00000000000000000000, 4.00000000000000000000, 4.00000000000000000000, 4.00000000000000000000, 4.00000000000000000000, 4.00000000000000000000, 1677.00000000000000000000, 1682.00000000000000000000, 0.00000000000000000000
55.00000000000000000000, 0.00000000000000000000, 4319.48707386195200000000, 4475.89732644747890000000, 4400.51271290625750000000, 5014.87167224219680000000, 4300.51271535157590000000, 4342.05117587429050000000, 4072.30759272679100000000, 4443.07681442953250000000, 4491.28194145589170000000, 4816.92295913395630000000, 4214.87169180474670000000, 4077.43579772959490000000, 4078.46143873015580000000, 4409.23066141102480000000, 0.00000000000000000000, 4.00000000000000000000, 4.00000000000000000000, 4.00000000000000000000, 4.00000000000000000000, 4.00000000000000000000, 3.00000000000000000000, 4.00000000000000000000, 4.00000000000000000000, 4.00000000000000000000, 4.00000000000000000000, 4.00000000000000000000, 4.00000000000000000000, 4.00000000000000000000, 4.00000000000000000000, 4.00000000000000000000, 4.00000000000000000000, 1678.00000000000000000000, 1682.00000000000000000000, 0.00000000000000000000
