title:                                                                                , recorded:16.08.19 14.44.37, sampling:128, subject:                                                                                , labels:COUNTER INTERPOLATED AF3 F7 F3 FC5 T7 P7 O1 O2 P8 T8 FC6 F4 F8 AF4 RAW_CQ CQ_AF3 CQ_F7 CQ_F3 CQ_FC5 CQ_T7 CQ_P7 CQ_O1 CQ_O2 CQ_P8 CQ_T8 CQ_FC6 CQ_F4 CQ_F8 CQ_AF4 CQ_CMS CQ_DRL GYROX GYROY MARKER, chan:36, units:emotiv
93.00000000000000000000, 0.00000000000000000000, 4314.35886885914720000000, 4448.71783993261670000000, 4426.66655842055840000000, 5031.28192825117000000000, 4304.61527935381950000000, 4337.43579137176680000000, 4076.92297722931470000000, 4494.87168495785410000000, 4528.71783797636180000000, 4879.48706016816690000000, 4247.17938332241280000000, 4108.71784824670070000000, 4124.61528375539360000000, 4451.28194243401870000000, 401.00000000000000000000, 4.00000000000000000000, 4.00000000000000000000, 4.00000000000000000000, 4.00000000000000000000, 4.00000000000000000000, 3.00000000000000000000, 4.00000000000000000000, 4.00000000000000000000, 4.00000000000000000000, 4.00000000000000000000, 4.00000000000000000000, 4.00000000000000000000, 4.00000000000000000000, 4.00000000000000000000, 4.00000000000000000000, 4.00000000000000000000, 1670.00000000000000000000, 1686.00000000000000000000, 0.00000000000000000000
94.00000000000000000000, 0.00000000000000000000, 4302.05117685241750000000, 4440.51271192813060000000, 4413.33322541326830000000, 5022.56397974640370000000, 4296.41015134933330000000, 4338.46143237232720000000, 4074.35887472791230000000, 4481.02553145028290000000, 4519.99988947159450000000, 4870.76911166339960000000, 4232.30758881428120000000, 4094.87169473912900000000, 4114.87169425006500000000, 4444.61527593037320000000, 445.00000000000000000000, 4.00000000000000000000, 4.00000000000000000000, 4.00000000000000000000, 4.00000000000000000000, 4.00000000000000000000, 3.00000000000000000000, 4.00000000000000000000, 4.00000000000000000000, 4.00000000000000000000, 4.00000000000000000000, 4.00000000000000000000, 4.00000000000000000000, 4.00000000000000000000, 4.00000000000000000000, 4.00000000000000000000, 4.00000000000000000000, 1670.00000000000000000000, 1686.00000000000000000000, 0.00000000000000000000
95.00000000000000000000, 0.00000000000000000000, 4297.94861285017400000000, 4445.12809643065430000000, 4409.23066141102480000000, 5018.97423624444040000000, 4299.99989485129570000000, 4342.05117587429050000000, 4071.28195172623010000000, 4480.51271095000270000000, 4522.05117147271630000000, 4875.89731666620450000000, 4230.76912731343960000000, 4089.23066923604440000000, 4108.71784824670070000000, 4445.12809643065430000000, 399.00000000000000000000, 4.00000000000000000000, 4.00000000000000000000, 4.00000000000000000000, 4.00000000000000000000, 4.00000000000000000000, 3.00000000000000000000, 4.00000000000000000000, 4.00000000000000000000, 4.00000000000000000000, 4.00000000000000000000, 4.00000000000000000000, 4.00000000000000000000, 4.00000000000000000000, 4.00000000000000000000, 4.00000000000000000000, 4.00000000000000000000, 1671.00000000000000000000, 1685.00000000000000000000, 0.00000000000000000000
96.00000000000000000000, 0.00000000000000000000, 4301.02553585185710000000, 4448.71783993261670000000, 4408.71784091074460000000, 5018.46141574416010000000, 4306.15374085466100000000, 4346.15373987653310000000, 4072.82041322707120000000, 4489.74347995505010000000, 4526.66655597524000000000, 4879.99988066844710000000, 4235.89733231624360000000, 4088.71784873576420000000, 4109.74348924726110000000, 4440.51271192813060000000, 418.00000000000000000000, 4.00000000000000000000, 4.00000000000000000000, 4.00000000000000000000, 4.00000000000000000000, 4.00000000000000000000, 3.00000000000000000000, 4.00000000000000000000, 4.00000000000000000000, 4.00000000000000000000, 4.00000000000000000000, 4.00000000000000000000, 4.00000000000000000000, 4.00000000000000000000, 4.00000000000000000000, 4.00000000000000000000, 4.00000000000000000000, 1671.00000000000000000000, 1685.00000000000000000000, 0.00000000000000000000
97.00000000000000000000, 0.00000000000000000000, 4299.48707435101550000000, 4446.15373743121470000000, 4402.56399490737930000000, 5018.97423624444040000000, 4302.56399735269770000000, 4343.58963737513110000000, 4073.33323372735140000000, 4484.61527495224620000000, 4525.12809447439850000000, 4875.89731666620450000000, 4231.28194781371990000000, 4082.05118223211870000000, 4105.64092524501760000000, 4429.23066092196130000000, 401.00000000000000000000, 4.00000000000000000000, 4.00000000000000000000, 4.00000000000000000000, 4.00000000000000000000, 4.00000000000000000000, 3.00000000000000000000, 4.00000000000000000000, 4.00000000000000000000, 4.00000000000000000000, 4.00000000000000000000, 4.00000000000000000000, 4.00000000000000000000, 4.00000000000000000000, 4.00000000000000000000, 4.00000000000000000000, 4.00000000000000000000, 1672.00000000000000000000, 1683.00000000000000000000, 0.00000000000000000000
98.00000000000000000000, 0.00000000000000000000, 4299.48707435101550000000, 4447.69219893205630000000, 4403.58963590793970000000, 5021.02551824556210000000, 4297.43579234989370000000, 4341.02553487372920000000, 4071.28195172623010000000, 4475.89732644747890000000, 4520.51270997187480000000, 4874.35885516536290000000, 4229.23066581259810000000, 4080.51272073127760000000, 4101.53836124277500000000, 4430.25630192252170000000, 445.00000000000000000000, 4.00000000000000000000, 4.00000000000000000000, 4.00000000000000000000, 4.00000000000000000000, 4.00000000000000000000, 3.00000000000000000000, 4.00000000000000000000, 4.00000000000000000000, 4.00000000000000000000, 4.00000000000000000000, 4.00000000000000000000, 4.00000000000000000000, 4.00000000000000000000, 4.00000000000000000000, 4.00000000000000000000, 4.00000000000000000000, 1672.00000000000000000000, 1681.00000000000000000000, 0.00000000000000000000
99.00000000000000000000, 0.00000000000000000000, 4304.10245885353920000000, 4447.69219893205630000000, 4409.23066141102480000000, 5021.02551824556210000000, 4297.94861285017400000000, 4341.53835537400940000000, 4070.25631072566920000000, 4478.46142894888090000000, 4514.87168446879060000000, 4875.38449616592330000000, 4231.79476831400010000000, 4088.71784873576420000000, 4104.10246374417690000000, 4440.51271192813060000000, 399.00000000000000000000, 4.00000000000000000000, 4.00000000000000000000, 4.00000000000000000000, 4.00000000000000000000, 4.00000000000000000000, 3.00000000000000000000, 4.00000000000000000000, 4.00000000000000000000, 4.00000000000000000000, 4.00000000000000000000, 4.00000000000000000000, 4.00000000000000000000, 4.00000000000000000000, 4.00000000000000000000, 4.00000000000000000000, 4.00000000000000000000, 1675.00000000000000000000, 1680.00000000000000000000, 0.00000000000000000000
100.00000000000000000000, 0.00000000000000000000, 4302.56399735269770000000, 4442.05117342897120000000, 4406.66655890962280000000, 5015.38449274247710000000, 4294.87168984849180000000, 4341.53835537400940000000, 4073.84605422763210000000, 4486.66655695336790000000, 4516.92296646991240000000, 4876.41013716648470000000, 4232.30758881428120000000, 4090.76913073688590000000, 4105.64092524501760000000, 4441.53835292869100000000, 418.00000000000000000000, 4.00000000000000000000, 4.00000000000000000000, 4.00000000000000000000, 4.00000000000000000000, 4.00000000000000000000, 3.00000000000000000000, 4.00000000000000000000, 4.00000000000000000000, 4.00000000000000000000, 4.00000000000000000000, 4.00000000000000000000, 4.00000000000000000000, 4.00000000000000000000, 4.00000000000000000000, 4.00000000000000000000, 4.00000000000000000000, 1674.00000000000000000000, 1680.00000000000000000000, 0.00000000000000000000
101.00000000000000000000, 0.00000000000000000000, 4305.12809985409970000000, 4445.64091693093450000000, 4406.15373840934260000000, 5017.43577474359880000000, 4296.41015134933330000000, 4343.07681687485090000000, 4076.92297722931470000000, 4486.15373645308680000000, 4522.05117147271630000000, 4883.07680367013020000000, 4236.41015281652380000000, 4088.20502823548350000000, 4110.25630974754130000000, 4440.51271192813060000000, 401.00000000000000000000, 4.00000000000000000000, 4.00000000000000000000, 4.00000000000000000000, 4.00000000000000000000, 4.00000000000000000000, 3.00000000000000000000, 4.00000000000000000000, 4.00000000000000000000, 4.00000000000000000000, 4.00000000000000000000, 4.00000000000000000000, 4.00000000000000000000, 4.00000000000000000000, 4.00000000000000000000, 4.00000000000000000000, 4.00000000000000000000, 1676.00000000000000000000, 1682.00000000000000000000, 0.00000000000000000000
102.00000000000000000000, 0.00000000000000000000, 4318.97425336167090000000, 4458.46142943794440000000, 4415.89732791467030000000, 5034.35885125285310000000, 4307.69220235550260000000, 4336.92297087148560000000, 4069.74349022538850000000, 4477.43578794832050000000, 4521.53835097243610000000, 4895.38449567685980000000, 4246.66656282213260000000, 4098.97425874137210000000, 4126.15374525623430000000, 4453.33322443514040000000, 445.00000000000000000000, 4.00000000000000000000, 4.00000000000000000000, 4.00000000000000000000, 4.00000000000000000000, 4.00000000000000000000, 3.00000000000000000000, 4.00000000000000000000, 4.00000000000000000000, 4.00000000000000000000, 4.00000000000000000000, 4.00000000000000000000, 4.00000000000000000000, 4.00000000000000000000, 4.00000000000000000000, 4.00000000000000000000, 4.00000000000000000000, 1677.00000000000000000000, 1679.00000000000000000000, 0.00000000000000000000
103.00000000000000000000, 0.00000000000000000000, 4325.64091986531640000000, 4466.15373694215120000000, 4424.61527641943760000000, 5041.53833825677880000000, 4313.84604835886690000000, 4329.23066336727970000000, 4059.48708021978020000000, 4474.87168544691850000000, 4522.56399197299650000000, 4901.02552117994490000000, 4253.84604982605830000000, 4108.20502774641950000000, 4136.92297576212330000000, 4464.10245494102950000000, 399.00000000000000000000, 4.00000000000000000000, 4.00000000000000000000, 4.00000000000000000000, 4.00000000000000000000, 4.00000000000000000000, 3.00000000000000000000, 4.00000000000000000000, 4.00000000000000000000, 4.00000000000000000000, 4.00000000000000000000, 4.00000000000000000000, 4.00000000000000000000, 4.00000000000000000000, 4.00000000000000000000, 4.00000000000000000000, 4.00000000000000000000, 1677.00000000000000000000, 1681.00000000000000000000, 0.00000000000000000000
104.00000000000000000000, 0.00000000000000000000, 4317.43579186083020000000, 4457.43578843738400000000, 4415.89732791467030000000, 5028.71782574976810000000, 4306.66656135494120000000, 4332.30758636896190000000, 4058.46143921921930000000, 4477.94860844860070000000, 4522.05117147271630000000, 4890.76911117433610000000, 4246.15374232185240000000, 4099.48707924165320000000, 4126.15374525623430000000, 4454.35886543570180000000, 418.00000000000000000000, 4.00000000000000000000, 4.00000000000000000000, 4.00000000000000000000, 4.00000000000000000000, 4.00000000000000000000, 3.00000000000000000000, 4.00000000000000000000, 4.00000000000000000000, 4.00000000000000000000, 4.00000000000000000000, 4.00000000000000000000, 4.00000000000000000000, 4.00000000000000000000, 4.00000000000000000000, 4.00000000000000000000, 4.00000000000000000000, 1678.00000000000000000000, 1680.00000000000000000000, 0.00000000000000000000
105.00000000000000000000, 0.00000000000000000000, 4309.23066385634320000000, 4444.10245543009300000000, 4404.61527690850110000000, 5018.97423624444040000000, 4298.46143335045510000000, 4334.35886837008370000000, 4059.99990072006090000000, 4474.35886494663740000000, 4507.69219746486490000000, 4874.35885516536290000000, 4230.25630681315940000000, 4086.66656673464240000000, 4106.66656624557890000000, 4441.02553242841080000000, 401.00000000000000000000, 4.00000000000000000000, 4.00000000000000000000, 4.00000000000000000000, 4.00000000000000000000, 4.00000000000000000000, 3.00000000000000000000, 4.00000000000000000000, 4.00000000000000000000, 4.00000000000000000000, 4.00000000000000000000, 4.00000000000000000000, 4.00000000000000000000, 4.00000000000000000000, 4.00000000000000000000, 4.00000000000000000000, 4.00000000000000000000, 1677.00000000000000000000, 1680.00000000000000000000, 0.00000000000000000000
106.00000000000000000000, 0.00000000000000000000, 4313.33322785858670000000, 4448.71783993261670000000, 4410.25630241158520000000, 5023.58962074696410000000, 4302.56399735269770000000, 4335.89732987092520000000, 4058.97425971950000000000, 4470.25630094439480000000, 4497.94860795953720000000, 4870.76911166339960000000, 4231.28194781371990000000, 4092.82041273800720000000, 4107.69220724613930000000, 4446.66655793149490000000, 445.00000000000000000000, 4.00000000000000000000, 4.00000000000000000000, 4.00000000000000000000, 4.00000000000000000000, 4.00000000000000000000, 3.00000000000000000000, 4.00000000000000000000, 4.00000000000000000000, 4.00000000000000000000, 4.00000000000000000000, 4.00000000000000000000, 4.00000000000000000000, 4.00000000000000000000, 4.00000000000000000000, 4.00000000000000000000, 4.00000000000000000000, 1678.00000000000000000000, 1680.00000000000000000000, 0.00000000000000000000
107.00000000000000000000, 0.00000000000000000000, 4316.92297136055000000000, 4461.02553193934640000000, 4417.43578941551100000000, 5030.76910775088980000000, 4311.28194585746500000000, 4344.61527837569250000000, 4058.97425971950000000000, 4472.82040344579670000000, 4509.74347946598660000000, 4884.10244467069060000000, 4246.66656282213260000000, 4102.56400224333540000000, 4121.53836075371050000000, 4458.97424993822550000000, 399.00000000000000000000, 4.00000000000000000000, 4.00000000000000000000, 4.00000000000000000000, 4.00000000000000000000, 4.00000000000000000000, 3.00000000000000000000, 4.00000000000000000000, 4.00000000000000000000, 4.00000000000000000000, 4.00000000000000000000, 4.00000000000000000000, 4.00000000000000000000, 4.00000000000000000000, 4.00000000000000000000, 4.00000000000000000000, 4.00000000000000000000, 1678.00000000000000000000, 1681.00000000000000000000, 0.00000000000000000000
108.00000000000000000000, 0.00000000000000000000, 4311.79476635774520000000, 4460.51271143906620000000, 4413.33322541326830000000, 5028.71782574976810000000, 4313.84604835886690000000, 4345.64091937625290000000, 4062.56400322146280000000, 4475.38450594719870000000, 4520.51270997187480000000, 4892.82039317545790000000, 4249.23066532353460000000, 4096.41015623997010000000, 4123.07682225455210000000, 4456.92296793710370000000, 418.00000000000000000000, 4.00000000000000000000, 4.00000000000000000000, 4.00000000000000000000, 4.00000000000000000000, 4.00000000000000000000, 3.00000000000000000000, 4.00000000000000000000, 4.00000000000000000000, 4.00000000000000000000, 4.00000000000000000000, 4.00000000000000000000, 4.00000000000000000000, 4.00000000000000000000, 4.00000000000000000000, 4.00000000000000000000, 4.00000000000000000000, 1678.00000000000000000000, 1683.00000000000000000000, 0.00000000000000000000
109.00000000000000000000, 0.00000000000000000000, 4310.25630485690450000000, 4455.38450643626220000000, 4411.79476391242680000000, 5026.15372324836610000000, 4308.20502285578280000000, 4344.61527837569250000000, 4068.71784922482770000000, 4486.66655695336790000000, 4522.05117147271630000000, 4891.79475217489740000000, 4243.58963982045040000000, 4091.28195123716610000000, 4121.02554025343030000000, 4448.71783993261670000000, 401.00000000000000000000, 4.00000000000000000000, 4.00000000000000000000, 4.00000000000000000000, 4.00000000000000000000, 4.00000000000000000000, 3.00000000000000000000, 4.00000000000000000000, 4.00000000000000000000, 4.00000000000000000000, 4.00000000000000000000, 4.00000000000000000000, 4.00000000000000000000, 4.00000000000000000000, 4.00000000000000000000, 4.00000000000000000000, 4.00000000000000000000, 1677.00000000000000000000, 1684.00000000000000000000, 0.00000000000000000000
110.00000000000000000000, 0.00000000000000000000, 4313.33322785858670000000, 4458.46142943794440000000, 4413.33322541326830000000, 5027.69218474920760000000, 4309.74348435662340000000, 4348.20502187765490000000, 4070.25631072566920000000, 4495.38450545813430000000, 4523.07681247327760000000, 4893.84603417601830000000, 4247.69220382269300000000, 4095.38451523940970000000, 4123.58964275483230000000, 4446.66655793149490000000, 445.00000000000000000000, 4.00000000000000000000, 4.00000000000000000000, 4.00000000000000000000, 4.00000000000000000000, 4.00000000000000000000, 3.00000000000000000000, 4.00000000000000000000, 4.00000000000000000000, 4.00000000000000000000, 4.00000000000000000000, 4.00000000000000000000, 4.00000000000000000000, 4.00000000000000000000, 4.00000000000000000000, 4.00000000000000000000, 4.00000000000000000000, 1677.00000000000000000000, 1684.00000000000000000000, 0.00000000000000000000
111.00000000000000000000, 0.00000000000000000000, 4306.66656135494120000000, 4452.30758343458000000000, 4404.10245640822090000000, 5025.12808224780570000000, 4312.30758685802630000000, 4338.97425287260740000000, 4058.97425971950000000000, 4484.61527495224620000000, 4520.51270997187480000000, 4893.84603417601830000000, 4245.12810132129110000000, 4093.33323323828790000000, 4115.38451475034620000000, 4444.61527593037320000000, 399.00000000000000000000, 4.00000000000000000000, 4.00000000000000000000, 4.00000000000000000000, 4.00000000000000000000, 4.00000000000000000000, 3.00000000000000000000, 4.00000000000000000000, 4.00000000000000000000, 4.00000000000000000000, 4.00000000000000000000, 4.00000000000000000000, 4.00000000000000000000, 4.00000000000000000000, 4.00000000000000000000, 4.00000000000000000000, 4.00000000000000000000, 1677.00000000000000000000, 1684.00000000000000000000, 0.00000000000000000000
112.00000000000000000000, 0.00000000000000000000, 4304.61527935381950000000, 4441.02553242841080000000, 4396.92296940429420000000, 5019.99987724500170000000, 4303.58963835325900000000, 4333.33322736952320000000, 4051.28195221529360000000, 4478.46142894888090000000, 4517.43578697019260000000, 4888.71782917321430000000, 4235.38451181596340000000, 4084.61528473352060000000, 4109.23066874698090000000, 4442.56399392925140000000, 418.00000000000000000000, 4.00000000000000000000, 4.00000000000000000000, 4.00000000000000000000, 4.00000000000000000000, 4.00000000000000000000, 3.00000000000000000000, 4.00000000000000000000, 4.00000000000000000000, 4.00000000000000000000, 4.00000000000000000000, 4.00000000000000000000, 4.00000000000000000000, 4.00000000000000000000, 4.00000000000000000000, 4.00000000000000000000, 4.00000000000000000000, 1677.00000000000000000000, 1686.00000000000000000000, 0.00000000000000000000
113.00000000000000000000, 0.00000000000000000000, 4307.17938185522140000000, 4448.20501943233650000000, 4401.53835390681890000000, 5022.05115924612260000000, 4301.02553585185710000000, 4346.66656037681420000000, 4058.46143921921930000000, 4489.23065945476990000000, 4524.10245347383810000000, 4894.35885467629940000000, 4236.92297331680490000000, 4082.05118223211870000000, 4117.94861725174810000000, 4445.12809643065430000000, 401.00000000000000000000, 4.00000000000000000000, 4.00000000000000000000, 4.00000000000000000000, 4.00000000000000000000, 4.00000000000000000000, 3.00000000000000000000, 4.00000000000000000000, 4.00000000000000000000, 4.00000000000000000000, 4.00000000000000000000, 4.00000000000000000000, 4.00000000000000000000, 4.00000000000000000000, 4.00000000000000000000, 4.00000000000000000000, 4.00000000000000000000, 1677.00000000000000000000, 1685.00000000000000000000, 0.00000000000000000000
114.00000000000000000000, 0.00000000000000000000, 4297.94861285017400000000, 4455.38450643626220000000, 4401.53835390681890000000, 5025.12808224780570000000, 4310.76912535718470000000, 4349.23066287821620000000, 4062.56400322146280000000, 4486.66655695336790000000, 4523.58963297355790000000, 4898.46141867854200000000, 4238.46143481764560000000, 4079.48707973071670000000, 4117.43579675146700000000, 4442.56399392925140000000, 445.00000000000000000000, 4.00000000000000000000, 4.00000000000000000000, 4.00000000000000000000, 4.00000000000000000000, 4.00000000000000000000, 3.00000000000000000000, 4.00000000000000000000, 4.00000000000000000000, 4.00000000000000000000, 4.00000000000000000000, 4.00000000000000000000, 4.00000000000000000000, 4.00000000000000000000, 4.00000000000000000000, 4.00000000000000000000, 4.00000000000000000000, 1677.00000000000000000000, 1686.00000000000000000000, 0.00000000000000000000
115.00000000000000000000, 0.00000000000000000000, 4293.33322834765020000000, 4446.15373743121470000000, 4395.89732840373380000000, 5023.58962074696410000000, 4313.33322785858670000000, 4336.92297087148560000000, 4053.33323421641530000000, 4469.23065994383340000000, 4509.23065896570640000000, 4883.58962417041040000000, 4231.79476831400010000000, 4074.35887472791230000000, 4103.07682274361560000000, 4437.94860942672770000000, 399.00000000000000000000, 4.00000000000000000000, 4.00000000000000000000, 4.00000000000000000000, 4.00000000000000000000, 4.00000000000000000000, 3.00000000000000000000, 4.00000000000000000000, 4.00000000000000000000, 4.00000000000000000000, 4.00000000000000000000, 4.00000000000000000000, 4.00000000000000000000, 4.00000000000000000000, 4.00000000000000000000, 4.00000000000000000000, 4.00000000000000000000, 1679.00000000000000000000, 1685.00000000000000000000, 0.00000000000000000000
116.00000000000000000000, 0.00000000000000000000, 4305.64092035438080000000, 4442.05117342897120000000, 4396.41014890401400000000, 5023.07680024668390000000, 4309.23066385634320000000, 4343.07681687485090000000, 4056.41015721809800000000, 4476.92296744803930000000, 4510.25629996626690000000, 4872.82039366452140000000, 4229.23066581259810000000, 4075.38451572847320000000, 4101.02554074249380000000, 4440.51271192813060000000, 418.00000000000000000000, 4.00000000000000000000, 4.00000000000000000000, 4.00000000000000000000, 4.00000000000000000000, 4.00000000000000000000, 3.00000000000000000000, 4.00000000000000000000, 4.00000000000000000000, 4.00000000000000000000, 4.00000000000000000000, 4.00000000000000000000, 4.00000000000000000000, 4.00000000000000000000, 4.00000000000000000000, 4.00000000000000000000, 4.00000000000000000000, 1678.00000000000000000000, 1685.00000000000000000000, 0.00000000000000000000
117.00000000000000000000, 0.00000000000000000000, 4311.28194585746500000000, 4452.30758343458000000000, 4399.48707190569710000000, 5023.58962074696410000000, 4309.74348435662340000000, 4358.97425238354390000000, 4072.82041322707120000000, 4495.89732595841540000000, 4524.10245347383810000000, 4877.43577816704510000000, 4231.28194781371990000000, 4079.48707973071670000000, 4106.66656624557890000000, 4442.56399392925140000000, 401.00000000000000000000, 4.00000000000000000000, 4.00000000000000000000, 4.00000000000000000000, 4.00000000000000000000, 4.00000000000000000000, 3.00000000000000000000, 4.00000000000000000000, 4.00000000000000000000, 4.00000000000000000000, 4.00000000000000000000, 4.00000000000000000000, 4.00000000000000000000, 4.00000000000000000000, 4.00000000000000000000, 4.00000000000000000000, 4.00000000000000000000, 1679.00000000000000000000, 1685.00000000000000000000, 0.00000000000000000000
118.00000000000000000000, 0.00000000000000000000, 4306.66656135494120000000, 4458.46142943794440000000, 4397.43578990457540000000, 5023.58962074696410000000, 4309.74348435662340000000, 4350.76912437905680000000, 4064.10246472230390000000, 4485.12809545252640000000, 4519.99988947159450000000, 4878.97423966788660000000, 4231.79476831400010000000, 4078.46143873015580000000, 4106.66656624557890000000, 4441.02553242841080000000, 445.00000000000000000000, 4.00000000000000000000, 4.00000000000000000000, 4.00000000000000000000, 4.00000000000000000000, 4.00000000000000000000, 3.00000000000000000000, 4.00000000000000000000, 4.00000000000000000000, 4.00000000000000000000, 4.00000000000000000000, 4.00000000000000000000, 4.00000000000000000000, 4.00000000000000000000, 4.00000000000000000000, 4.00000000000000000000, 4.00000000000000000000, 1679.00000000000000000000, 1684.00000000000000000000, 0.00000000000000000000
119.00000000000000000000, 0.00000000000000000000, 4307.17938185522140000000, 4457.94860893766420000000, 4395.38450790345360000000, 5025.64090274808590000000, 4307.69220235550260000000, 4328.71784286699950000000, 4039.99990120912430000000, 4466.15373694215120000000, 4510.25629996626690000000, 4880.51270116872820000000, 4232.82040931456140000000, 4074.87169522819290000000, 4108.20502774641950000000, 4441.02553242841080000000, 399.00000000000000000000, 4.00000000000000000000, 4.00000000000000000000, 4.00000000000000000000, 4.00000000000000000000, 4.00000000000000000000, 3.00000000000000000000, 4.00000000000000000000, 4.00000000000000000000, 4.00000000000000000000, 4.00000000000000000000, 4.00000000000000000000, 4.00000000000000000000, 4.00000000000000000000, 4.00000000000000000000, 4.00000000000000000000, 4.00000000000000000000, 1680.00000000000000000000, 1685.00000000000000000000, 0.00000000000000000000
120.00000000000000000000, 0.00000000000000000000, 4311.79476635774520000000, 4459.48707043850570000000, 4401.02553340653780000000, 5032.82038975201160000000, 4313.84604835886690000000, 4328.20502236671840000000, 4042.05118321024610000000, 4468.20501894327300000000, 4517.43578697019260000000, 4889.23064967349460000000, 4232.82040931456140000000, 4081.02554123155780000000, 4112.30759174866310000000, 4443.07681442953250000000, 418.00000000000000000000, 4.00000000000000000000, 4.00000000000000000000, 4.00000000000000000000, 4.00000000000000000000, 4.00000000000000000000, 3.00000000000000000000, 4.00000000000000000000, 4.00000000000000000000, 4.00000000000000000000, 4.00000000000000000000, 4.00000000000000000000, 4.00000000000000000000, 4.00000000000000000000, 4.00000000000000000000, 4.00000000000000000000, 4.00000000000000000000, 1680.00000000000000000000, 1686.00000000000000000000, 0.00000000000000000000
121.00000000000000000000, 0.00000000000000000000, 4317.43579186083020000000, 4467.69219844299190000000, 4408.20502041046350000000, 5039.99987675593730000000, 4321.02553536279270000000, 4343.58963737513110000000, 4058.46143921921930000000, 4483.07681345140460000000, 4527.17937647552030000000, 4894.35885467629940000000, 4235.38451181596340000000, 4090.76913073688590000000, 4117.43579675146700000000, 4444.61527593037320000000, 401.00000000000000000000, 4.00000000000000000000, 4.00000000000000000000, 4.00000000000000000000, 4.00000000000000000000, 4.00000000000000000000, 3.00000000000000000000, 4.00000000000000000000, 4.00000000000000000000, 4.00000000000000000000, 4.00000000000000000000, 4.00000000000000000000, 4.00000000000000000000, 4.00000000000000000000, 4.00000000000000000000, 4.00000000000000000000, 4.00000000000000000000, 1681.00000000000000000000, 1686.00000000000000000000, 0.00000000000000000000
122.00000000000000000000, 0.00000000000000000000, 4317.94861236111050000000, 4471.79476244523540000000, 4405.12809740878130000000, 5038.46141525509670000000, 4317.94861236111050000000, 4344.10245787541130000000, 4063.07682372174350000000, 4490.25630045533030000000, 4523.58963297355790000000, 4897.94859817826180000000, 4244.10246032073060000000, 4090.76913073688590000000, 4120.51271975315010000000, 4446.66655793149490000000, 445.00000000000000000000, 4.00000000000000000000, 4.00000000000000000000, 4.00000000000000000000, 4.00000000000000000000, 4.00000000000000000000, 3.00000000000000000000, 4.00000000000000000000, 4.00000000000000000000, 4.00000000000000000000, 4.00000000000000000000, 4.00000000000000000000, 4.00000000000000000000, 4.00000000000000000000, 4.00000000000000000000, 4.00000000000000000000, 4.00000000000000000000, 1681.00000000000000000000, 1686.00000000000000000000, 0.00000000000000000000
123.00000000000000000000, 0.00000000000000000000, 4312.30758685802630000000, 4464.10245494102950000000, 4398.46143090513580000000, 5032.82038975201160000000, 4310.25630485690450000000, 4338.46143237232720000000, 4070.76913122594940000000, 4483.07681345140460000000, 4519.48706897131430000000, 4898.97423917882320000000, 4242.56399881988910000000, 4082.56400273239930000000, 4113.84605324950460000000, 4445.64091693093450000000, 399.00000000000000000000, 4.00000000000000000000, 4.00000000000000000000, 4.00000000000000000000, 4.00000000000000000000, 4.00000000000000000000, 3.00000000000000000000, 4.00000000000000000000, 4.00000000000000000000, 4.00000000000000000000, 4.00000000000000000000, 4.00000000000000000000, 4.00000000000000000000, 4.00000000000000000000, 4.00000000000000000000, 4.00000000000000000000, 4.00000000000000000000, 1681.00000000000000000000, 1687.00000000000000000000, 0.00000000000000000000
124.00000000000000000000, 0.00000000000000000000, 4309.74348435662340000000, 4457.94860893766420000000, 4397.43578990457540000000, 5030.76910775088980000000, 4308.71784335606300000000, 4341.02553487372920000000, 4088.20502823548350000000, 4477.43578794832050000000, 4522.05117147271630000000, 4884.10244467069060000000, 4232.82040931456140000000, 4075.89733622875380000000, 4105.64092524501760000000, 4441.02553242841080000000, 418.00000000000000000000, 4.00000000000000000000, 4.00000000000000000000, 4.00000000000000000000, 4.00000000000000000000, 4.00000000000000000000, 3.00000000000000000000, 4.00000000000000000000, 4.00000000000000000000, 4.00000000000000000000, 4.00000000000000000000, 4.00000000000000000000, 4.00000000000000000000, 4.00000000000000000000, 4.00000000000000000000, 4.00000000000000000000, 4.00000000000000000000, 1681.00000000000000000000, 1686.00000000000000000000, 0.00000000000000000000
125.00000000000000000000, 0.00000000000000000000, 4313.84604835886690000000, 4461.02553193934640000000, 4396.92296940429420000000, 5027.69218474920760000000, 4309.23066385634320000000, 4342.05117587429050000000, 4094.35887423884880000000, 4477.43578794832050000000, 4523.07681247327760000000, 4875.38449616592330000000, 4229.23066581259810000000, 4075.38451572847320000000, 4105.12810474473740000000, 4438.97425042728900000000, 401.00000000000000000000, 4.00000000000000000000, 4.00000000000000000000, 4.00000000000000000000, 4.00000000000000000000, 4.00000000000000000000, 3.00000000000000000000, 4.00000000000000000000, 4.00000000000000000000, 4.00000000000000000000, 4.00000000000000000000, 4.00000000000000000000, 4.00000000000000000000, 4.00000000000000000000, 4.00000000000000000000, 4.00000000000000000000, 4.00000000000000000000, 1680.00000000000000000000, 1688.00000000000000000000, 0.00000000000000000000
126.00000000000000000000, 0.00000000000000000000, 4311.28194585746500000000, 4461.02553193934640000000, 4396.92296940429420000000, 5025.64090274808590000000, 4309.74348435662340000000, 4342.05117587429050000000, 4098.46143824109190000000, 4475.89732644747890000000, 4521.02553047215590000000, 4881.53834216928860000000, 4231.79476831400010000000, 4074.87169522819290000000, 4108.20502774641950000000, 4437.43578892644750000000, 445.00000000000000000000, 4.00000000000000000000, 4.00000000000000000000, 4.00000000000000000000, 4.00000000000000000000, 4.00000000000000000000, 3.00000000000000000000, 4.00000000000000000000, 4.00000000000000000000, 4.00000000000000000000, 4.00000000000000000000, 4.00000000000000000000, 4.00000000000000000000, 4.00000000000000000000, 4.00000000000000000000, 4.00000000000000000000, 4.00000000000000000000, 1680.00000000000000000000, 1689.00000000000000000000, 0.00000000000000000000
127.00000000000000000000, 0.00000000000000000000, 4301.02553585185710000000, 4456.92296793710370000000, 4394.87168740317340000000, 5026.15372324836610000000, 4311.28194585746500000000, 4344.10245787541130000000, 4105.12810474473740000000, 4474.35886494663740000000, 4518.46142797075390000000, 4881.02552166900840000000, 4230.76912731343960000000, 4070.25631072566920000000, 4105.12810474473740000000, 4431.79476342336330000000, 399.00000000000000000000, 4.00000000000000000000, 4.00000000000000000000, 4.00000000000000000000, 4.00000000000000000000, 4.00000000000000000000, 3.00000000000000000000, 4.00000000000000000000, 4.00000000000000000000, 4.00000000000000000000, 4.00000000000000000000, 4.00000000000000000000, 4.00000000000000000000, 4.00000000000000000000, 4.00000000000000000000, 4.00000000000000000000, 4.00000000000000000000, 1679.00000000000000000000, 1690.00000000000000000000, 0.00000000000000000000
128.00000000000000000000, 0.00000000000000000000, 4296.41015134933330000000, 4450.25630143345820000000, 4387.17937989896650000000, 5023.58962074696410000000, 4310.76912535718470000000, 4337.94861187204700000000, 4098.97425874137210000000, 4475.38450594719870000000, 4517.43578697019260000000, 4880.51270116872820000000, 4227.17938381147630000000, 4067.69220822426720000000, 4097.43579724053140000000, 4430.25630192252170000000, 418.00000000000000000000, 4.00000000000000000000, 4.00000000000000000000, 4.00000000000000000000, 4.00000000000000000000, 4.00000000000000000000, 3.00000000000000000000, 4.00000000000000000000, 4.00000000000000000000, 4.00000000000000000000, 4.00000000000000000000, 4.00000000000000000000, 4.00000000000000000000, 4.00000000000000000000, 4.00000000000000000000, 4.00000000000000000000, 4.00000000000000000000, 1679.00000000000000000000, 1691.00000000000000000000, 0.00000000000000000000
0.00000000000000000000, 0.00000000000000000000, 4297.43579234989370000000, 4446.15373743121470000000, 4385.64091839812590000000, 5021.53833874584230000000, 4307.69220235550260000000, 4333.33322736952320000000, 4092.30759223772700000000, 4474.35886494663740000000, 4518.97424847103410000000, 4887.17936767237370000000, 4229.23066581259810000000, 4073.84605422763210000000, 4096.92297674025120000000, 4438.46142992700880000000, 411.00000000000000000000, 4.00000000000000000000, 4.00000000000000000000, 4.00000000000000000000, 4.00000000000000000000, 4.00000000000000000000, 3.00000000000000000000, 4.00000000000000000000, 4.00000000000000000000, 4.00000000000000000000, 4.00000000000000000000, 4.00000000000000000000, 4.00000000000000000000, 4.00000000000000000000, 4.00000000000000000000, 4.00000000000000000000, 4.00000000000000000000, 1677.00000000000000000000, 1689.00000000000000000000, 0.00000000000000000000
1.00000000000000000000, 0.00000000000000000000, 4297.94861285017400000000, 4453.33322443514040000000, 4389.74348240036850000000, 5022.56397974640370000000, 4308.20502285578280000000, 4346.15373987653310000000, 4102.05118174305520000000, 4474.35886494663740000000, 4522.05117147271630000000, 4879.48706016816690000000, 4230.76912731343960000000, 4077.43579772959490000000, 4102.56400224333540000000, 4444.10245543009300000000, 445.00000000000000000000, 4.00000000000000000000, 4.00000000000000000000, 4.00000000000000000000, 4.00000000000000000000, 4.00000000000000000000, 3.00000000000000000000, 4.00000000000000000000, 4.00000000000000000000, 4.00000000000000000000, 4.00000000000000000000, 4.00000000000000000000, 4.00000000000000000000, 4.00000000000000000000, 4.00000000000000000000, 4.00000000000000000000, 4.00000000000000000000, 1676.00000000000000000000, 1690.00000000000000000000, 0.00000000000000000000
2.00000000000000000000, 0.00000000000000000000, 4298.46143335045510000000, 4457.43578843738400000000, 4388.20502089952790000000, 5022.05115924612260000000, 4311.28194585746500000000, 4353.33322688045880000000, 4105.12810474473740000000, 4476.41014694775910000000, 4523.07681247327760000000, 4871.28193216368070000000, 4228.71784531231790000000, 4074.35887472791230000000, 4104.61528424445710000000, 4439.48707092756920000000, 416.00000000000000000000, 4.00000000000000000000, 4.00000000000000000000, 4.00000000000000000000, 4.00000000000000000000, 4.00000000000000000000, 3.00000000000000000000, 4.00000000000000000000, 4.00000000000000000000, 4.00000000000000000000, 4.00000000000000000000, 4.00000000000000000000, 4.00000000000000000000, 4.00000000000000000000, 4.00000000000000000000, 4.00000000000000000000, 4.00000000000000000000, 1676.00000000000000000000, 1688.00000000000000000000, 0.00000000000000000000
3.00000000000000000000, 0.00000000000000000000, 4306.15374085466100000000, 4456.41014743682260000000, 4392.30758490177050000000, 5025.12808224780570000000, 4312.30758685802630000000, 4345.12809887597270000000, 4096.41015623997010000000, 4475.89732644747890000000, 4522.05117147271630000000, 4889.23064967349460000000, 4236.41015281652380000000, 4081.53836173183840000000, 4112.30759174866310000000, 4441.53835292869100000000, 453.00000000000000000000, 4.00000000000000000000, 4.00000000000000000000, 4.00000000000000000000, 4.00000000000000000000, 4.00000000000000000000, 3.00000000000000000000, 4.00000000000000000000, 4.00000000000000000000, 4.00000000000000000000, 4.00000000000000000000, 4.00000000000000000000, 4.00000000000000000000, 4.00000000000000000000, 4.00000000000000000000, 4.00000000000000000000, 4.00000000000000000000, 1675.00000000000000000000, 1690.00000000000000000000, 0.00000000000000000000
4.00000000000000000000, 0.00000000000000000000, 4311.79476635774520000000, 4463.58963444074930000000, 4399.99989240597730000000, 5029.23064625004920000000, 4312.30758685802630000000, 4341.02553487372920000000, 4094.35887423884880000000, 4477.94860844860070000000, 4524.10245347383810000000, 4903.58962368134690000000, 4249.74348582381480000000, 4092.82041273800720000000, 4124.61528375539360000000, 4451.28194243401870000000, 467.00000000000000000000, 4.00000000000000000000, 4.00000000000000000000, 4.00000000000000000000, 4.00000000000000000000, 4.00000000000000000000, 3.00000000000000000000, 4.00000000000000000000, 4.00000000000000000000, 4.00000000000000000000, 4.00000000000000000000, 4.00000000000000000000, 4.00000000000000000000, 4.00000000000000000000, 4.00000000000000000000, 4.00000000000000000000, 4.00000000000000000000, 1674.00000000000000000000, 1690.00000000000000000000, 0.00000000000000000000
5.00000000000000000000, 0.00000000000000000000, 4309.23066385634320000000, 4459.99989093878590000000, 4397.94861040485560000000, 5023.58962074696410000000, 4310.25630485690450000000, 4341.53835537400940000000, 4093.84605373856810000000, 4476.41014694775910000000, 4523.07681247327760000000, 4893.84603417601830000000, 4248.20502432297420000000, 4093.84605373856810000000, 4121.53836075371050000000, 4453.84604493542070000000, 345.00000000000000000000, 4.00000000000000000000, 4.00000000000000000000, 4.00000000000000000000, 4.00000000000000000000, 4.00000000000000000000, 3.00000000000000000000, 4.00000000000000000000, 4.00000000000000000000, 4.00000000000000000000, 4.00000000000000000000, 4.00000000000000000000, 4.00000000000000000000, 4.00000000000000000000, 4.00000000000000000000, 4.00000000000000000000, 4.00000000000000000000, 1674.00000000000000000000, 1692.00000000000000000000, 0.00000000000000000000
6.00000000000000000000, 0.00000000000000000000, 4311.28194585746500000000, 4449.23066043289690000000, 4400.51271290625750000000, 5025.64090274808590000000, 4308.20502285578280000000, 4338.46143237232720000000, 4095.38451523940970000000, 4472.30758294551560000000, 4520.51270997187480000000, 4889.74347017377570000000, 4245.12810132129110000000, 4091.79477173744680000000, 4117.94861725174810000000, 4454.87168593598200000000, 456.00000000000000000000, 4.00000000000000000000, 4.00000000000000000000, 4.00000000000000000000, 4.00000000000000000000, 4.00000000000000000000, 3.00000000000000000000, 4.00000000000000000000, 4.00000000000000000000, 4.00000000000000000000, 4.00000000000000000000, 4.00000000000000000000, 4.00000000000000000000, 4.00000000000000000000, 4.00000000000000000000, 4.00000000000000000000, 4.00000000000000000000, 1674.00000000000000000000, 1691.00000000000000000000, 0.00000000000000000000
7.00000000000000000000, 0.00000000000000000000, 4323.07681736391440000000, 4464.10245494102950000000, 4412.82040491298720000000, 5040.51269725621750000000, 4313.33322785858670000000, 4341.02553487372920000000, 4106.15374574529870000000, 4475.89732644747890000000, 4521.02553047215590000000, 4894.35885467629940000000, 4251.79476782493660000000, 4095.38451523940970000000, 4127.17938625679560000000, 4459.99989093878590000000, 425.00000000000000000000, 4.00000000000000000000, 4.00000000000000000000, 4.00000000000000000000, 4.00000000000000000000, 4.00000000000000000000, 3.00000000000000000000, 4.00000000000000000000, 4.00000000000000000000, 4.00000000000000000000, 4.00000000000000000000, 4.00000000000000000000, 4.00000000000000000000, 4.00000000000000000000, 4.00000000000000000000, 4.00000000000000000000, 4.00000000000000000000, 1674.00000000000000000000, 1691.00000000000000000000, 0.00000000000000000000
8.00000000000000000000, 0.00000000000000000000, 4330.25630436784010000000, 4487.69219795392840000000, 4415.38450741439010000000, 5042.56397925733930000000, 4317.94861236111050000000, 4344.61527837569250000000, 4109.23066874698090000000, 4479.99989044972240000000, 4519.99988947159450000000, 4885.12808567125190000000, 4242.05117831960890000000, 4093.84605373856810000000, 4119.48707875258880000000, 4456.92296793710370000000, 371.00000000000000000000, 4.00000000000000000000, 4.00000000000000000000, 4.00000000000000000000, 4.00000000000000000000, 4.00000000000000000000, 3.00000000000000000000, 4.00000000000000000000, 4.00000000000000000000, 4.00000000000000000000, 4.00000000000000000000, 4.00000000000000000000, 4.00000000000000000000, 4.00000000000000000000, 4.00000000000000000000, 4.00000000000000000000, 4.00000000000000000000, 1674.00000000000000000000, 1689.00000000000000000000, 0.00000000000000000000
9.00000000000000000000, 0.00000000000000000000, 4327.17938136615790000000, 4491.79476195617190000000, 4410.76912291186640000000, 5044.10244075818080000000, 4314.35886885914720000000, 4341.53835537400940000000, 4100.51272024221360000000, 4477.43578794832050000000, 4519.99988947159450000000, 4872.30757316424110000000, 4224.10246080979410000000, 4086.66656673464240000000, 4095.89733573968990000000, 4444.61527593037320000000, 415.00000000000000000000, 4.00000000000000000000, 4.00000000000000000000, 4.00000000000000000000, 4.00000000000000000000, 4.00000000000000000000, 3.00000000000000000000, 4.00000000000000000000, 4.00000000000000000000, 4.00000000000000000000, 4.00000000000000000000, 4.00000000000000000000, 4.00000000000000000000, 4.00000000000000000000, 4.00000000000000000000, 4.00000000000000000000, 4.00000000000000000000, 1672.00000000000000000000, 1689.00000000000000000000, 0.00000000000000000000
10.00000000000000000000, 0.00000000000000000000, 4324.10245836447580000000, 4491.79476195617190000000, 4412.82040491298720000000, 5052.82038926294810000000, 4310.25630485690450000000, 4342.56399637457070000000, 4096.41015623997010000000, 4471.79476244523540000000, 4517.94860747047280000000, 4872.82039366452140000000, 4224.61528131007440000000, 4087.69220773520330000000, 4084.61528473352060000000, 4439.99989142784940000000, 445.00000000000000000000, 4.00000000000000000000, 4.00000000000000000000, 4.00000000000000000000, 4.00000000000000000000, 4.00000000000000000000, 3.00000000000000000000, 4.00000000000000000000, 4.00000000000000000000, 4.00000000000000000000, 4.00000000000000000000, 4.00000000000000000000, 4.00000000000000000000, 4.00000000000000000000, 4.00000000000000000000, 4.00000000000000000000, 4.00000000000000000000, 1674.00000000000000000000, 1690.00000000000000000000, 0.00000000000000000000
11.00000000000000000000, 0.00000000000000000000, 4320.51271486251240000000, 4490.76912095561060000000, 4412.30758441270700000000, 5046.66654325958280000000, 4311.28194585746500000000, 4342.56399637457070000000, 4096.92297674025120000000, 4469.23065994383340000000, 4508.20501796514510000000, 4870.25629116311940000000, 4223.58964030951390000000, 4090.25631023660530000000, 4083.58964373295980000000, 4445.64091693093450000000, 399.00000000000000000000, 4.00000000000000000000, 4.00000000000000000000, 4.00000000000000000000, 4.00000000000000000000, 4.00000000000000000000, 3.00000000000000000000, 4.00000000000000000000, 4.00000000000000000000, 4.00000000000000000000, 4.00000000000000000000, 4.00000000000000000000, 4.00000000000000000000, 4.00000000000000000000, 4.00000000000000000000, 4.00000000000000000000, 4.00000000000000000000, 1673.00000000000000000000, 1689.00000000000000000000, 0.00000000000000000000
12.00000000000000000000, 0.00000000000000000000, 4313.33322785858670000000, 4478.97424944916110000000, 4404.61527690850110000000, 5029.23064625004920000000, 4310.25630485690450000000, 4334.87168887036390000000, 4092.30759223772700000000, 4467.69219844299190000000, 4503.07681296234110000000, 4859.99988115751150000000, 4213.84605080418620000000, 4085.12810523380130000000, 4080.51272073127760000000, 4440.51271192813060000000, 418.00000000000000000000, 4.00000000000000000000, 4.00000000000000000000, 4.00000000000000000000, 4.00000000000000000000, 4.00000000000000000000, 3.00000000000000000000, 4.00000000000000000000, 4.00000000000000000000, 4.00000000000000000000, 4.00000000000000000000, 4.00000000000000000000, 4.00000000000000000000, 4.00000000000000000000, 4.00000000000000000000, 4.00000000000000000000, 4.00000000000000000000, 1673.00000000000000000000, 1691.00000000000000000000, 0.00000000000000000000
13.00000000000000000000, 0.00000000000000000000, 4309.23066385634320000000, 4471.79476244523540000000, 4401.02553340653780000000, 5027.17936424892740000000, 4304.61527935381950000000, 4333.33322736952320000000, 4091.28195123716610000000, 4467.69219844299190000000, 4506.15373596402330000000, 4853.33321465386600000000, 4213.84605080418620000000, 4076.92297722931470000000, 4075.89733622875380000000, 4430.76912242280200000000, 401.00000000000000000000, 4.00000000000000000000, 4.00000000000000000000, 4.00000000000000000000, 4.00000000000000000000, 4.00000000000000000000, 3.00000000000000000000, 4.00000000000000000000, 4.00000000000000000000, 4.00000000000000000000, 4.00000000000000000000, 4.00000000000000000000, 4.00000000000000000000, 4.00000000000000000000, 4.00000000000000000000, 4.00000000000000000000, 4.00000000000000000000, 1674.00000000000000000000, 1690.00000000000000000000, 0.00000000000000000000
14.00000000000000000000, 0.00000000000000000000, 4309.74348435662340000000, 4474.35886494663740000000, 4401.53835390681890000000, 5031.79474875145120000000, 4295.38451034877200000000, 4335.38450937064500000000, 4096.41015623997010000000, 4469.74348044411360000000, 4507.69219746486490000000, 4845.64090714965910000000, 4217.94861480642880000000, 4074.87169522819290000000, 4072.30759272679100000000, 4433.33322492420390000000, 445.00000000000000000000, 4.00000000000000000000, 4.00000000000000000000, 4.00000000000000000000, 4.00000000000000000000, 4.00000000000000000000, 3.00000000000000000000, 4.00000000000000000000, 4.00000000000000000000, 4.00000000000000000000, 4.00000000000000000000, 4.00000000000000000000, 4.00000000000000000000, 4.00000000000000000000, 4.00000000000000000000, 4.00000000000000000000, 4.00000000000000000000, 1674.00000000000000000000, 1690.00000000000000000000, 0.00000000000000000000
15.00000000000000000000, 0.00000000000000000000, 4309.23066385634320000000, 4473.33322394607690000000, 4402.56399490737930000000, 5030.76910775088980000000, 4292.30758734708980000000, 4335.89732987092520000000, 4097.43579724053140000000, 4474.35886494663740000000, 4506.66655646430350000000, 4839.48706114629480000000, 4213.33323030390510000000, 4076.41015672903400000000, 4073.84605422763210000000, 4437.43578892644750000000, 399.00000000000000000000, 4.00000000000000000000, 4.00000000000000000000, 4.00000000000000000000, 4.00000000000000000000, 4.00000000000000000000, 3.00000000000000000000, 4.00000000000000000000, 4.00000000000000000000, 4.00000000000000000000, 4.00000000000000000000, 4.00000000000000000000, 4.00000000000000000000, 4.00000000000000000000, 4.00000000000000000000, 4.00000000000000000000, 4.00000000000000000000, 1675.00000000000000000000, 1689.00000000000000000000, 0.00000000000000000000
16.00000000000000000000, 0.00000000000000000000, 4310.76912535718470000000, 4472.30758294551560000000, 4403.58963590793970000000, 5032.82038975201160000000, 4303.07681785297880000000, 4339.99989387316870000000, 4097.94861774081160000000, 4478.46142894888090000000, 4508.71783846542530000000, 4847.17936865050070000000, 4214.35887130446640000000, 4076.92297722931470000000, 4077.43579772959490000000, 4432.82040442392370000000, 0.00000000000000000000, 4.00000000000000000000, 4.00000000000000000000, 4.00000000000000000000, 4.00000000000000000000, 4.00000000000000000000, 3.00000000000000000000, 4.00000000000000000000, 4.00000000000000000000, 4.00000000000000000000, 4.00000000000000000000, 4.00000000000000000000, 4.00000000000000000000, 4.00000000000000000000, 4.00000000000000000000, 4.00000000000000000000, 4.00000000000000000000, 1675.00000000000000000000, 1689.00000000000000000000, 0.00000000000000000000
17.00000000000000000000, 0.00000000000000000000, 4311.79476635774520000000, 4474.35886494663740000000, 4402.56399490737930000000, 5034.35885125285310000000, 4306.15374085466100000000, 4346.66656037681420000000, 4100.51272024221360000000, 4478.97424944916110000000, 4509.74347946598660000000, 4857.43577865610950000000, 4216.41015330558820000000, 4074.35887472791230000000, 4074.87169522819290000000, 4429.74348142224150000000, 0.00000000000000000000, 4.00000000000000000000, 4.00000000000000000000, 4.00000000000000000000, 4.00000000000000000000, 4.00000000000000000000, 3.00000000000000000000, 4.00000000000000000000, 4.00000000000000000000, 4.00000000000000000000, 4.00000000000000000000, 4.00000000000000000000, 4.00000000000000000000, 4.00000000000000000000, 4.00000000000000000000, 4.00000000000000000000, 4.00000000000000000000, 1676.00000000000000000000, 1690.00000000000000000000, 0.00000000000000000000
18.00000000000000000000, 0.00000000000000000000, 4306.15374085466100000000, 4473.33322394607690000000, 4398.46143090513580000000, 5030.76910775088980000000, 4297.94861285017400000000, 4341.53835537400940000000, 4096.41015623997010000000, 4476.92296744803930000000, 4509.23065896570640000000, 4855.38449665498770000000, 4210.76912780250310000000, 4071.28195172623010000000, 4071.28195172623010000000, 4428.20501992140000000000, 0.00000000000000000000, 4.00000000000000000000, 4.00000000000000000000, 4.00000000000000000000, 4.00000000000000000000, 4.00000000000000000000, 3.00000000000000000000, 4.00000000000000000000, 4.00000000000000000000, 4.00000000000000000000, 4.00000000000000000000, 4.00000000000000000000, 4.00000000000000000000, 4.00000000000000000000, 4.00000000000000000000, 4.00000000000000000000, 4.00000000000000000000, 1676.00000000000000000000, 1691.00000000000000000000, 0.00000000000000000000
19.00000000000000000000, 0.00000000000000000000, 4304.10245885353920000000, 4469.74348044411360000000, 4394.87168740317340000000, 5025.12808224780570000000, 4299.99989485129570000000, 4330.76912486812130000000, 4088.20502823548350000000, 4474.35886494663740000000, 4508.20501796514510000000, 4854.87167615470660000000, 4212.82040980362490000000, 4071.28195172623010000000, 4073.84605422763210000000, 4428.71784042168020000000, 0.00000000000000000000, 4.00000000000000000000, 4.00000000000000000000, 4.00000000000000000000, 4.00000000000000000000, 4.00000000000000000000, 3.00000000000000000000, 4.00000000000000000000, 4.00000000000000000000, 4.00000000000000000000, 4.00000000000000000000, 4.00000000000000000000, 4.00000000000000000000, 4.00000000000000000000, 4.00000000000000000000, 4.00000000000000000000, 4.00000000000000000000, 1677.00000000000000000000, 1690.00000000000000000000, 0.00000000000000000000
20.00000000000000000000, 0.00000000000000000000, 4309.74348435662340000000, 4466.66655744243140000000, 4395.38450790345360000000, 5023.07680024668390000000, 4302.56399735269770000000, 4333.84604786980340000000, 4089.23066923604440000000, 4475.38450594719870000000, 4508.20501796514510000000, 4860.51270165779170000000, 4217.94861480642880000000, 4072.82041322707120000000, 4077.43579772959490000000, 4431.28194292308220000000, 0.00000000000000000000, 4.00000000000000000000, 4.00000000000000000000, 4.00000000000000000000, 4.00000000000000000000, 4.00000000000000000000, 3.00000000000000000000, 4.00000000000000000000, 4.00000000000000000000, 4.00000000000000000000, 4.00000000000000000000, 4.00000000000000000000, 4.00000000000000000000, 4.00000000000000000000, 4.00000000000000000000, 4.00000000000000000000, 4.00000000000000000000, 1678.00000000000000000000, 1690.00000000000000000000, 0.00000000000000000000
21.00000000000000000000, 0.00000000000000000000, 4304.61527935381950000000, 4463.58963444074930000000, 4394.87168740317340000000, 5023.07680024668390000000, 4294.87168984849180000000, 4343.58963737513110000000, 4099.48707924165320000000, 4485.12809545252640000000, 4508.20501796514510000000, 4855.89731715526800000000, 4208.20502530110120000000, 4068.20502872454740000000, 4073.33323372735140000000, 4426.66655842055840000000, 0.00000000000000000000, 4.00000000000000000000, 4.00000000000000000000, 4.00000000000000000000, 4.00000000000000000000, 4.00000000000000000000, 3.00000000000000000000, 4.00000000000000000000, 4.00000000000000000000, 4.00000000000000000000, 4.00000000000000000000, 4.00000000000000000000, 4.00000000000000000000, 4.00000000000000000000, 4.00000000000000000000, 4.00000000000000000000, 4.00000000000000000000, 1678.00000000000000000000, 1688.00000000000000000000, 0.00000000000000000000
22.00000000000000000000, 0.00000000000000000000, 4292.30758734708980000000, 4458.46142943794440000000, 4393.84604640261200000000, 5021.02551824556210000000, 4291.79476684680960000000, 4344.61527837569250000000, 4105.12810474473740000000, 4490.76912095561060000000, 4510.76912046654710000000, 4846.66654815022050000000, 4200.51271779689520000000, 4064.10246472230390000000, 4066.66656722370640000000, 4418.46143041607230000000, 0.00000000000000000000, 4.00000000000000000000, 4.00000000000000000000, 4.00000000000000000000, 4.00000000000000000000, 4.00000000000000000000, 3.00000000000000000000, 4.00000000000000000000, 4.00000000000000000000, 4.00000000000000000000, 4.00000000000000000000, 4.00000000000000000000, 4.00000000000000000000, 4.00000000000000000000, 4.00000000000000000000, 4.00000000000000000000, 4.00000000000000000000, 1679.00000000000000000000, 1690.00000000000000000000, 0.00000000000000000000
23.00000000000000000000, 0.00000000000000000000, 4298.97425385073530000000, 4463.07681394046810000000, 4394.87168740317340000000, 5022.56397974640370000000, 4298.97425385073530000000, 4339.99989387316870000000, 4102.56400224333540000000, 4487.17937745364820000000, 4518.46142797075390000000, 4853.84603515414620000000, 4210.76912780250310000000, 4069.74349022538850000000, 4070.25631072566920000000, 4423.07681491859600000000, 0.00000000000000000000, 4.00000000000000000000, 4.00000000000000000000, 4.00000000000000000000, 4.00000000000000000000, 4.00000000000000000000, 3.00000000000000000000, 4.00000000000000000000, 4.00000000000000000000, 4.00000000000000000000, 4.00000000000000000000, 4.00000000000000000000, 4.00000000000000000000, 4.00000000000000000000, 4.00000000000000000000, 4.00000000000000000000, 4.00000000000000000000, 1679.00000000000000000000, 1689.00000000000000000000, 0.00000000000000000000
24.00000000000000000000, 0.00000000000000000000, 4312.30758685802630000000, 4475.89732644747890000000, 4398.46143090513580000000, 5030.76910775088980000000, 4307.17938185522140000000, 4339.99989387316870000000, 4094.35887423884880000000, 4484.61527495224620000000, 4524.10245347383810000000, 4866.66654766115700000000, 4220.51271730783080000000, 4077.43579772959490000000, 4079.99990023099690000000, 4432.30758392364350000000, 0.00000000000000000000, 4.00000000000000000000, 4.00000000000000000000, 4.00000000000000000000, 4.00000000000000000000, 4.00000000000000000000, 3.00000000000000000000, 4.00000000000000000000, 4.00000000000000000000, 4.00000000000000000000, 4.00000000000000000000, 4.00000000000000000000, 4.00000000000000000000, 4.00000000000000000000, 4.00000000000000000000, 4.00000000000000000000, 4.00000000000000000000, 1679.00000000000000000000, 1690.00000000000000000000, 0.00000000000000000000
25.00000000000000000000, 0.00000000000000000000, 4305.12809985409970000000, 4474.35886494663740000000, 4397.43578990457540000000, 5032.30756925173140000000, 4309.74348435662340000000, 4342.05117587429050000000, 4090.25631023660530000000, 4485.12809545252640000000, 4516.92296646991240000000, 4862.05116315863320000000, 4216.41015330558820000000, 4074.87169522819290000000, 4079.99990023099690000000, 4427.69219942111980000000, 0.00000000000000000000, 4.00000000000000000000, 4.00000000000000000000, 4.00000000000000000000, 4.00000000000000000000, 4.00000000000000000000, 3.00000000000000000000, 4.00000000000000000000, 4.00000000000000000000, 4.00000000000000000000, 4.00000000000000000000, 4.00000000000000000000, 4.00000000000000000000, 4.00000000000000000000, 4.00000000000000000000, 4.00000000000000000000, 4.00000000000000000000, 1680.00000000000000000000, 1688.00000000000000000000, 0.00000000000000000000
26.00000000000000000000, 0.00000000000000000000, 4293.84604884793040000000, 4459.99989093878590000000, 4389.23066190008830000000, 5022.56397974640370000000, 4302.05117685241750000000, 4339.48707337288760000000, 4091.79477173744680000000, 4479.99989044972240000000, 4504.61527446318270000000, 4845.64090714965910000000, 4205.64092279969920000000, 4067.17938772398660000000, 4067.69220822426720000000, 4413.33322541326830000000, 0.00000000000000000000, 4.00000000000000000000, 4.00000000000000000000, 4.00000000000000000000, 4.00000000000000000000, 4.00000000000000000000, 3.00000000000000000000, 4.00000000000000000000, 4.00000000000000000000, 4.00000000000000000000, 4.00000000000000000000, 4.00000000000000000000, 4.00000000000000000000, 4.00000000000000000000, 4.00000000000000000000, 4.00000000000000000000, 4.00000000000000000000, 1679.00000000000000000000, 1689.00000000000000000000, 0.00000000000000000000
27.00000000000000000000, 0.00000000000000000000, 4293.84604884793040000000, 4456.92296793710370000000, 4387.17937989896650000000, 5019.99987724500170000000, 4299.99989485129570000000, 4334.87168887036390000000, 4088.71784873576420000000, 4472.30758294551560000000, 4501.53835146149960000000, 4839.99988164657500000000, 4197.94861529549330000000, 4067.69220822426720000000, 4063.58964422202370000000, 4412.30758441270700000000, 0.00000000000000000000, 4.00000000000000000000, 4.00000000000000000000, 4.00000000000000000000, 4.00000000000000000000, 4.00000000000000000000, 3.00000000000000000000, 4.00000000000000000000, 4.00000000000000000000, 4.00000000000000000000, 4.00000000000000000000, 4.00000000000000000000, 4.00000000000000000000, 4.00000000000000000000, 4.00000000000000000000, 4.00000000000000000000, 4.00000000000000000000, 1681.00000000000000000000, 1687.00000000000000000000, 0.00000000000000000000
28.00000000000000000000, 0.00000000000000000000, 4296.92297184961350000000, 4463.58963444074930000000, 4391.79476440149030000000, 5025.64090274808590000000, 4305.64092035438080000000, 4338.97425287260740000000, 4092.30759223772700000000, 4473.33322394607690000000, 4506.66655646430350000000, 4843.07680464825720000000, 4203.07682029829720000000, 4075.38451572847320000000, 4069.23066972510830000000, 4427.17937892083960000000, 0.00000000000000000000, 4.00000000000000000000, 4.00000000000000000000, 4.00000000000000000000, 4.00000000000000000000, 4.00000000000000000000, 3.00000000000000000000, 4.00000000000000000000, 4.00000000000000000000, 4.00000000000000000000, 4.00000000000000000000, 4.00000000000000000000, 4.00000000000000000000, 4.00000000000000000000, 4.00000000000000000000, 4.00000000000000000000, 4.00000000000000000000, 1679.00000000000000000000, 1687.00000000000000000000, 0.00000000000000000000
29.00000000000000000000, 0.00000000000000000000, 4295.89733084905220000000, 4461.53835243962750000000, 4391.28194390121010000000, 5025.64090274808590000000, 4299.48707435101550000000, 4348.71784237793510000000, 4104.61528424445710000000, 4483.07681345140460000000, 4509.74347946598660000000, 4845.12808664937890000000, 4209.23066630166250000000, 4078.46143873015580000000, 4068.71784922482770000000, 4430.25630192252170000000, 0.00000000000000000000, 4.00000000000000000000, 4.00000000000000000000, 4.00000000000000000000, 4.00000000000000000000, 4.00000000000000000000, 3.00000000000000000000, 4.00000000000000000000, 4.00000000000000000000, 4.00000000000000000000, 4.00000000000000000000, 4.00000000000000000000, 4.00000000000000000000, 4.00000000000000000000, 4.00000000000000000000, 4.00000000000000000000, 4.00000000000000000000, 1680.00000000000000000000, 1687.00000000000000000000, 0.00000000000000000000
30.00000000000000000000, 0.00000000000000000000, 4294.87168984849180000000, 4458.97424993822550000000, 4389.23066190008830000000, 5021.53833874584230000000, 4294.87168984849180000000, 4338.46143237232720000000, 4099.99989974193340000000, 4480.51271095000270000000, 4504.10245396290160000000, 4847.69218915078090000000, 4206.66656380025960000000, 4074.35887472791230000000, 4066.15374672342570000000, 4418.97425091635250000000, 0.00000000000000000000, 4.00000000000000000000, 4.00000000000000000000, 4.00000000000000000000, 4.00000000000000000000, 4.00000000000000000000, 3.00000000000000000000, 4.00000000000000000000, 4.00000000000000000000, 4.00000000000000000000, 4.00000000000000000000, 4.00000000000000000000, 4.00000000000000000000, 4.00000000000000000000, 4.00000000000000000000, 4.00000000000000000000, 4.00000000000000000000, 1679.00000000000000000000, 1684.00000000000000000000, 0.00000000000000000000
31.00000000000000000000, 0.00000000000000000000, 4298.46143335045510000000, 4467.69219844299190000000, 4395.38450790345360000000, 5026.15372324836610000000, 4302.05117685241750000000, 4328.20502236671840000000, 4084.61528473352060000000, 4464.10245494102950000000, 4499.99988996065800000000, 4847.17936865050070000000, 4204.10246129885760000000, 4070.76913122594940000000, 4069.74349022538850000000, 4418.97425091635250000000, 0.00000000000000000000, 4.00000000000000000000, 4.00000000000000000000, 4.00000000000000000000, 4.00000000000000000000, 4.00000000000000000000, 3.00000000000000000000, 4.00000000000000000000, 4.00000000000000000000, 4.00000000000000000000, 4.00000000000000000000, 4.00000000000000000000, 4.00000000000000000000, 4.00000000000000000000, 4.00000000000000000000, 4.00000000000000000000, 4.00000000000000000000, 1679.00000000000000000000, 1685.00000000000000000000, 0.00000000000000000000
32.00000000000000000000, 0.00000000000000000000, 4301.53835635213730000000, 4475.38450594719870000000, 4396.92296940429420000000, 5033.33321025229180000000, 4302.05117685241750000000, 4341.02553487372920000000, 4087.17938723492310000000, 4460.51271143906620000000, 4504.61527446318270000000, 4842.05116364769670000000, 4205.64092279969920000000, 4069.23066972510830000000, 4071.28195172623010000000, 4426.66655842055840000000, 0.00000000000000000000, 4.00000000000000000000, 4.00000000000000000000, 4.00000000000000000000, 4.00000000000000000000, 4.00000000000000000000, 3.00000000000000000000, 4.00000000000000000000, 4.00000000000000000000, 4.00000000000000000000, 4.00000000000000000000, 4.00000000000000000000, 4.00000000000000000000, 4.00000000000000000000, 4.00000000000000000000, 4.00000000000000000000, 4.00000000000000000000, 1678.00000000000000000000, 1684.00000000000000000000, 0.00000000000000000000
33.00000000000000000000, 0.00000000000000000000, 4303.58963835325900000000, 4473.84604444635720000000, 4394.87168740317340000000, 5032.30756925173140000000, 4300.51271535157590000000, 4342.56399637457070000000, 4093.33323323828790000000, 4472.30758294551560000000, 4507.69219746486490000000, 4846.66654815022050000000, 4210.25630730222290000000, 4072.82041322707120000000, 4072.30759272679100000000, 4429.23066092196130000000, 0.00000000000000000000, 4.00000000000000000000, 4.00000000000000000000, 4.00000000000000000000, 4.00000000000000000000, 4.00000000000000000000, 3.00000000000000000000, 4.00000000000000000000, 4.00000000000000000000, 4.00000000000000000000, 4.00000000000000000000, 4.00000000000000000000, 4.00000000000000000000, 4.00000000000000000000, 4.00000000000000000000, 4.00000000000000000000, 4.00000000000000000000, 1676.00000000000000000000, 1685.00000000000000000000, 0.00000000000000000000
34.00000000000000000000, 0.00000000000000000000, 4309.23066385634320000000, 4472.30758294551560000000, 4403.58963590793970000000, 5031.79474875145120000000, 4305.12809985409970000000, 4328.20502236671840000000, 4086.15374623436220000000, 4475.38450594719870000000, 4507.17937696458470000000, 4860.51270165779170000000, 4218.46143530671000000000, 4083.07682323267950000000, 4077.94861822987510000000, 4431.79476342336330000000, 0.00000000000000000000, 4.00000000000000000000, 4.00000000000000000000, 4.00000000000000000000, 4.00000000000000000000, 4.00000000000000000000, 3.00000000000000000000, 4.00000000000000000000, 4.00000000000000000000, 4.00000000000000000000, 4.00000000000000000000, 4.00000000000000000000, 4.00000000000000000000, 4.00000000000000000000, 4.00000000000000000000, 4.00000000000000000000, 4.00000000000000000000, 1675.00000000000000000000, 1684.00000000000000000000, 0.00000000000000000000
35.00000000000000000000, 0.00000000000000000000, 4312.82040735830650000000, 4475.89732644747890000000, 4409.74348191130500000000, 5034.87167175313330000000, 4302.56399735269770000000, 4328.71784286699950000000, 4085.12810523380130000000, 4472.82040344579670000000, 4509.23065896570640000000, 4864.10244515975410000000, 4221.53835830839220000000, 4087.17938723492310000000, 4082.56400273239930000000, 4434.87168642504550000000, 0.00000000000000000000, 4.00000000000000000000, 4.00000000000000000000, 4.00000000000000000000, 4.00000000000000000000, 4.00000000000000000000, 3.00000000000000000000, 4.00000000000000000000, 4.00000000000000000000, 4.00000000000000000000, 4.00000000000000000000, 4.00000000000000000000, 4.00000000000000000000, 4.00000000000000000000, 4.00000000000000000000, 4.00000000000000000000, 4.00000000000000000000, 1674.00000000000000000000, 1684.00000000000000000000, 0.00000000000000000000
36.00000000000000000000, 0.00000000000000000000, 4306.15374085466100000000, 4472.82040344579670000000, 4401.02553340653780000000, 5032.82038975201160000000, 4298.46143335045510000000, 4340.51271437344890000000, 4095.38451523940970000000, 4474.35886494663740000000, 4509.23065896570640000000, 4853.33321465386600000000, 4216.92297380586840000000, 4079.99990023099690000000, 4080.51272073127760000000, 4429.23066092196130000000, 0.00000000000000000000, 4.00000000000000000000, 4.00000000000000000000, 4.00000000000000000000, 4.00000000000000000000, 4.00000000000000000000, 3.00000000000000000000, 4.00000000000000000000, 4.00000000000000000000, 4.00000000000000000000, 4.00000000000000000000, 4.00000000000000000000, 4.00000000000000000000, 4.00000000000000000000, 4.00000000000000000000, 4.00000000000000000000, 4.00000000000000000000, 1674.00000000000000000000, 1684.00000000000000000000, 0.00000000000000000000
37.00000000000000000000, 0.00000000000000000000, 4297.94861285017400000000, 4461.53835243962750000000, 4392.82040540205160000000, 5025.12808224780570000000, 4297.94861285017400000000, 4344.61527837569250000000, 4096.41015623997010000000, 4474.87168544691850000000, 4502.56399246206090000000, 4840.51270214685520000000, 4213.84605080418620000000, 4074.35887472791230000000, 4076.41015672903400000000, 4422.05117391803470000000, 0.00000000000000000000, 4.00000000000000000000, 4.00000000000000000000, 4.00000000000000000000, 4.00000000000000000000, 4.00000000000000000000, 3.00000000000000000000, 4.00000000000000000000, 4.00000000000000000000, 4.00000000000000000000, 4.00000000000000000000, 4.00000000000000000000, 4.00000000000000000000, 4.00000000000000000000, 4.00000000000000000000, 4.00000000000000000000, 4.00000000000000000000, 1671.00000000000000000000, 1683.00000000000000000000, 0.00000000000000000000
38.00000000000000000000, 0.00000000000000000000, 4297.43579234989370000000, 4456.92296793710370000000, 4393.33322590233180000000, 5022.56397974640370000000, 4292.82040784737000000000, 4342.05117587429050000000, 4091.28195123716610000000, 4471.28194194495520000000, 4501.02553096121940000000, 4840.51270214685520000000, 4214.35887130446640000000, 4075.89733622875380000000, 4074.87169522819290000000, 4424.10245591915650000000, 0.00000000000000000000, 4.00000000000000000000, 4.00000000000000000000, 4.00000000000000000000, 4.00000000000000000000, 4.00000000000000000000, 3.00000000000000000000, 4.00000000000000000000, 4.00000000000000000000, 4.00000000000000000000, 4.00000000000000000000, 4.00000000000000000000, 4.00000000000000000000, 4.00000000000000000000, 4.00000000000000000000, 4.00000000000000000000, 4.00000000000000000000, 1673.00000000000000000000, 1683.00000000000000000000, 0.00000000000000000000
39.00000000000000000000, 0.00000000000000000000, 4295.89733084905220000000, 4459.99989093878590000000, 4395.38450790345360000000, 5024.61526174752540000000, 4299.48707435101550000000, 4337.94861187204700000000, 4089.23066923604440000000, 4465.64091644187010000000, 4505.12809496346290000000, 4845.12808664937890000000, 4212.82040980362490000000, 4076.41015672903400000000, 4075.38451572847320000000, 4426.66655842055840000000, 0.00000000000000000000, 4.00000000000000000000, 4.00000000000000000000, 4.00000000000000000000, 4.00000000000000000000, 4.00000000000000000000, 3.00000000000000000000, 4.00000000000000000000, 4.00000000000000000000, 4.00000000000000000000, 4.00000000000000000000, 4.00000000000000000000, 4.00000000000000000000, 4.00000000000000000000, 4.00000000000000000000, 4.00000000000000000000, 4.00000000000000000000, 1672.00000000000000000000, 1682.00000000000000000000, 0.00000000000000000000
40.00000000000000000000, 0.00000000000000000000, 4296.41015134933330000000, 4462.05117293990770000000, 4396.41014890401400000000, 5028.20500524948780000000, 4317.43579186083020000000, 4334.35886837008370000000, 4091.28195123716610000000, 4465.12809594158990000000, 4503.58963346262140000000, 4845.12808664937890000000, 4212.30758930334470000000, 4073.84605422763210000000, 4077.94861822987510000000, 4424.61527641943760000000, 0.00000000000000000000, 4.00000000000000000000, 4.00000000000000000000, 4.00000000000000000000, 4.00000000000000000000, 4.00000000000000000000, 3.00000000000000000000, 4.00000000000000000000, 4.00000000000000000000, 4.00000000000000000000, 4.00000000000000000000, 4.00000000000000000000, 4.00000000000000000000, 4.00000000000000000000, 4.00000000000000000000, 4.00000000000000000000, 4.00000000000000000000, 1673.00000000000000000000, 1682.00000000000000000000, 0.00000000000000000000
41.00000000000000000000, 0.00000000000000000000, 4303.58963835325900000000, 4461.53835243962750000000, 4400.51271290625750000000, 5033.33321025229180000000, 4311.28194585746500000000, 4341.53835537400940000000, 4099.48707924165320000000, 4476.92296744803930000000, 4505.12809496346290000000, 4851.28193265274420000000, 4217.94861480642880000000, 4078.97425923043600000000, 4086.66656673464240000000, 4430.25630192252170000000, 0.00000000000000000000, 4.00000000000000000000, 4.00000000000000000000, 4.00000000000000000000, 4.00000000000000000000, 4.00000000000000000000, 3.00000000000000000000, 4.00000000000000000000, 4.00000000000000000000, 4.00000000000000000000, 4.00000000000000000000, 4.00000000000000000000, 4.00000000000000000000, 4.00000000000000000000, 4.00000000000000000000, 4.00000000000000000000, 4.00000000000000000000, 1673.00000000000000000000, 1681.00000000000000000000, 0.00000000000000000000
42.00000000000000000000, 0.00000000000000000000, 4309.23066385634320000000, 4460.51271143906620000000, 4404.10245640822090000000, 5030.25628725060960000000, 4292.82040784737000000000, 4351.28194487933800000000, 4109.74348924726110000000, 4485.12809545252640000000, 4511.79476146710840000000, 4862.56398365891350000000, 4224.61528131007440000000, 4086.15374623436220000000, 4093.33323323828790000000, 4437.43578892644750000000, 0.00000000000000000000, 4.00000000000000000000, 4.00000000000000000000, 4.00000000000000000000, 4.00000000000000000000, 4.00000000000000000000, 3.00000000000000000000, 4.00000000000000000000, 4.00000000000000000000, 4.00000000000000000000, 4.00000000000000000000, 4.00000000000000000000, 4.00000000000000000000, 4.00000000000000000000, 4.00000000000000000000, 4.00000000000000000000, 4.00000000000000000000, 1672.00000000000000000000, 1681.00000000000000000000, 0.00000000000000000000
43.00000000000000000000, 0.00000000000000000000, 4308.71784335606300000000, 4462.56399344018790000000, 4404.61527690850110000000, 5025.12808224780570000000, 4291.79476684680960000000, 4345.64091937625290000000, 4105.12810474473740000000, 4477.43578794832050000000, 4509.23065896570640000000, 4861.53834265835210000000, 4226.66656331119610000000, 4086.15374623436220000000, 4090.76913073688590000000, 4438.97425042728900000000, 0.00000000000000000000, 4.00000000000000000000, 4.00000000000000000000, 4.00000000000000000000, 4.00000000000000000000, 4.00000000000000000000, 3.00000000000000000000, 4.00000000000000000000, 4.00000000000000000000, 4.00000000000000000000, 4.00000000000000000000, 4.00000000000000000000, 4.00000000000000000000, 4.00000000000000000000, 4.00000000000000000000, 4.00000000000000000000, 4.00000000000000000000, 1674.00000000000000000000, 1681.00000000000000000000, 0.00000000000000000000
44.00000000000000000000, 0.00000000000000000000, 4313.33322785858670000000, 4470.25630094439480000000, 4408.20502041046350000000, 5034.35885125285310000000, 4300.51271535157590000000, 4333.33322736952320000000, 4090.25631023660530000000, 4470.76912144467500000000, 4503.07681296234110000000, 4859.48706065723040000000, 4229.23066581259810000000, 4085.12810523380130000000, 4094.87169473912900000000, 4439.99989142784940000000, 0.00000000000000000000, 4.00000000000000000000, 4.00000000000000000000, 4.00000000000000000000, 4.00000000000000000000, 4.00000000000000000000, 3.00000000000000000000, 4.00000000000000000000, 4.00000000000000000000, 4.00000000000000000000, 4.00000000000000000000, 4.00000000000000000000, 4.00000000000000000000, 4.00000000000000000000, 4.00000000000000000000, 4.00000000000000000000, 4.00000000000000000000, 1673.00000000000000000000, 1682.00000000000000000000, 0.00000000000000000000
45.00000000000000000000, 0.00000000000000000000, 4320.51271486251240000000, 4478.46142894888090000000, 4414.87168691410900000000, 5043.58962025790060000000, 4303.07681785297880000000, 4336.92297087148560000000, 4093.33323323828790000000, 4478.46142894888090000000, 4507.17937696458470000000, 4863.58962465947390000000, 4233.84605031512180000000, 4091.79477173744680000000, 4104.61528424445710000000, 4441.53835292869100000000, 0.00000000000000000000, 4.00000000000000000000, 4.00000000000000000000, 4.00000000000000000000, 4.00000000000000000000, 4.00000000000000000000, 3.00000000000000000000, 4.00000000000000000000, 4.00000000000000000000, 4.00000000000000000000, 4.00000000000000000000, 4.00000000000000000000, 4.00000000000000000000, 4.00000000000000000000, 4.00000000000000000000, 4.00000000000000000000, 4.00000000000000000000, 1674.00000000000000000000, 1683.00000000000000000000, 0.00000000000000000000
46.00000000000000000000, 0.00000000000000000000, 4318.46143286139070000000, 4477.43578794832050000000, 4411.79476391242680000000, 5035.38449225341360000000, 4304.61527935381950000000, 4343.58963737513110000000, 4099.48707924165320000000, 4481.53835195056310000000, 4508.20501796514510000000, 4865.64090666059560000000, 4231.79476831400010000000, 4091.28195123716610000000, 4103.07682274361560000000, 4435.38450692532570000000, 0.00000000000000000000, 4.00000000000000000000, 4.00000000000000000000, 4.00000000000000000000, 4.00000000000000000000, 4.00000000000000000000, 3.00000000000000000000, 4.00000000000000000000, 4.00000000000000000000, 4.00000000000000000000, 4.00000000000000000000, 4.00000000000000000000, 4.00000000000000000000, 4.00000000000000000000, 4.00000000000000000000, 4.00000000000000000000, 4.00000000000000000000, 1673.00000000000000000000, 1684.00000000000000000000, 0.00000000000000000000
47.00000000000000000000, 0.00000000000000000000, 4310.76912535718470000000, 4466.66655744243140000000, 4399.99989240597730000000, 5025.12808224780570000000, 4302.05117685241750000000, 4333.33322736952320000000, 4087.17938723492310000000, 4470.76912144467500000000, 4502.05117196177980000000, 4858.97424015695010000000, 4222.56399930895260000000, 4076.41015672903400000000, 4089.74348973632500000000, 4428.20501992140000000000, 0.00000000000000000000, 4.00000000000000000000, 4.00000000000000000000, 4.00000000000000000000, 4.00000000000000000000, 4.00000000000000000000, 3.00000000000000000000, 4.00000000000000000000, 4.00000000000000000000, 4.00000000000000000000, 4.00000000000000000000, 4.00000000000000000000, 4.00000000000000000000, 4.00000000000000000000, 4.00000000000000000000, 4.00000000000000000000, 4.00000000000000000000, 1675.00000000000000000000, 1685.00000000000000000000, 0.00000000000000000000
48.00000000000000000000, 0.00000000000000000000, 4306.15374085466100000000, 4464.10245494102950000000, 4394.87168740317340000000, 5026.66654374864630000000, 4296.41015134933330000000, 4329.74348386755990000000, 4081.02554123155780000000, 4468.20501894327300000000, 4503.07681296234110000000, 4850.25629165218290000000, 4216.41015330558820000000, 4068.71784922482770000000, 4082.05118223211870000000, 4426.66655842055840000000, 0.00000000000000000000, 4.00000000000000000000, 4.00000000000000000000, 4.00000000000000000000, 4.00000000000000000000, 4.00000000000000000000, 3.00000000000000000000, 4.00000000000000000000, 4.00000000000000000000, 4.00000000000000000000, 4.00000000000000000000, 4.00000000000000000000, 4.00000000000000000000, 4.00000000000000000000, 4.00000000000000000000, 4.00000000000000000000, 4.00000000000000000000, 1674.00000000000000000000, 1685.00000000000000000000, 0.00000000000000000000
49.00000000000000000000, 0.00000000000000000000, 4308.20502285578280000000, 4470.76912144467500000000, 4401.53835390681890000000, 5029.74346675032940000000, 4296.41015134933330000000, 4339.48707337288760000000, 4091.28195123716610000000, 4472.30758294551560000000, 4504.61527446318270000000, 4846.66654815022050000000, 4216.41015330558820000000, 4073.84605422763210000000, 4085.64092573408150000000, 4428.20501992140000000000, 0.00000000000000000000, 4.00000000000000000000, 4.00000000000000000000, 4.00000000000000000000, 4.00000000000000000000, 4.00000000000000000000, 3.00000000000000000000, 4.00000000000000000000, 4.00000000000000000000, 4.00000000000000000000, 4.00000000000000000000, 4.00000000000000000000, 4.00000000000000000000, 4.00000000000000000000, 4.00000000000000000000, 4.00000000000000000000, 4.00000000000000000000, 1675.00000000000000000000, 1685.00000000000000000000, 0.00000000000000000000
50.00000000000000000000, 0.00000000000000000000, 4312.30758685802630000000, 4469.23065994383340000000, 4406.66655890962280000000, 5027.69218474920760000000, 4296.41015134933330000000, 4344.61527837569250000000, 4094.87169473912900000000, 4464.61527544130970000000, 4500.51271046093920000000, 4847.69218915078090000000, 4217.43579430614860000000, 4077.94861822987510000000, 4090.76913073688590000000, 4429.74348142224150000000, 0.00000000000000000000, 4.00000000000000000000, 4.00000000000000000000, 4.00000000000000000000, 4.00000000000000000000, 4.00000000000000000000, 3.00000000000000000000, 4.00000000000000000000, 4.00000000000000000000, 4.00000000000000000000, 4.00000000000000000000, 4.00000000000000000000, 4.00000000000000000000, 4.00000000000000000000, 4.00000000000000000000, 4.00000000000000000000, 4.00000000000000000000, 1674.00000000000000000000, 1685.00000000000000000000, 0.00000000000000000000
51.00000000000000000000, 0.00000000000000000000, 4309.23066385634320000000, 4459.48707043850570000000, 4401.53835390681890000000, 5025.64090274808590000000, 4296.41015134933330000000, 4343.07681687485090000000, 4092.30759223772700000000, 4457.94860893766420000000, 4501.02553096121940000000, 4845.64090714965910000000, 4215.89733280530710000000, 4072.82041322707120000000, 4090.25631023660530000000, 4430.25630192252170000000, 0.00000000000000000000, 4.00000000000000000000, 4.00000000000000000000, 4.00000000000000000000, 4.00000000000000000000, 4.00000000000000000000, 3.00000000000000000000, 4.00000000000000000000, 4.00000000000000000000, 4.00000000000000000000, 4.00000000000000000000, 4.00000000000000000000, 4.00000000000000000000, 4.00000000000000000000, 4.00000000000000000000, 4.00000000000000000000, 4.00000000000000000000, 1673.00000000000000000000, 1687.00000000000000000000, 0.00000000000000000000
52.00000000000000000000, 0.00000000000000000000, 4302.05117685241750000000, 4457.43578843738400000000, 4395.89732840373380000000, 5022.05115924612260000000, 4297.43579234989370000000, 4341.02553487372920000000, 4091.28195123716610000000, 4457.43578843738400000000, 4504.61527446318270000000, 4845.12808664937890000000, 4212.30758930334470000000, 4067.69220822426720000000, 4086.15374623436220000000, 4426.15373792027820000000, 0.00000000000000000000, 4.00000000000000000000, 4.00000000000000000000, 4.00000000000000000000, 4.00000000000000000000, 4.00000000000000000000, 3.00000000000000000000, 4.00000000000000000000, 4.00000000000000000000, 4.00000000000000000000, 4.00000000000000000000, 4.00000000000000000000, 4.00000000000000000000, 4.00000000000000000000, 4.00000000000000000000, 4.00000000000000000000, 4.00000000000000000000, 1673.00000000000000000000, 1684.00000000000000000000, 0.00000000000000000000
53.00000000000000000000, 0.00000000000000000000, 4304.10245885353920000000, 4459.48707043850570000000, 4398.46143090513580000000, 5020.51269774528190000000, 4293.84604884793040000000, 4342.05117587429050000000, 4088.71784873576420000000, 4458.46142943794440000000, 4504.61527446318270000000, 4847.69218915078090000000, 4212.82040980362490000000, 4065.12810572286480000000, 4080.51272073127760000000, 4424.61527641943760000000, 0.00000000000000000000, 4.00000000000000000000, 4.00000000000000000000, 4.00000000000000000000, 4.00000000000000000000, 4.00000000000000000000, 3.00000000000000000000, 4.00000000000000000000, 4.00000000000000000000, 4.00000000000000000000, 4.00000000000000000000, 4.00000000000000000000, 4.00000000000000000000, 4.00000000000000000000, 4.00000000000000000000, 4.00000000000000000000, 4.00000000000000000000, 1672.00000000000000000000, 1684.00000000000000000000, 0.00000000000000000000
54.00000000000000000000, 0.00000000000000000000, 4308.20502285578280000000, 4457.43578843738400000000, 4402.05117440709910000000, 5023.58962074696410000000, 4290.76912584624820000000, 4349.23066287821620000000, 4095.89733573968990000000, 4467.69219844299190000000, 4505.12809496346290000000, 4843.07680464825720000000, 4213.84605080418620000000, 4065.64092622314550000000, 4076.41015672903400000000, 4426.66655842055840000000, 0.00000000000000000000, 4.00000000000000000000, 4.00000000000000000000, 4.00000000000000000000, 4.00000000000000000000, 4.00000000000000000000, 3.00000000000000000000, 4.00000000000000000000, 4.00000000000000000000, 4.00000000000000000000, 4.00000000000000000000, 4.00000000000000000000, 4.00000000000000000000, 4.00000000000000000000, 4.00000000000000000000, 4.00000000000000000000, 4.00000000000000000000, 1673.00000000000000000000, 1681.00000000000000000000, 0.00000000000000000000
55.00000000000000000000, 0.00000000000000000000, 4307.69220235550260000000, 4457.43578843738400000000, 4406.66655890962280000000, 5026.15372324836610000000, 4292.30758734708980000000, 4355.38450888158060000000, 4105.12810474473740000000, 4478.97424944916110000000, 4506.66655646430350000000, 4844.10244564881850000000, 4216.41015330558820000000, 4073.84605422763210000000, 4083.07682323267950000000, 4429.23066092196130000000, 0.00000000000000000000, 4.00000000000000000000, 4.00000000000000000000, 4.00000000000000000000, 4.00000000000000000000, 4.00000000000000000000, 3.00000000000000000000, 4.00000000000000000000, 4.00000000000000000000, 4.00000000000000000000, 4.00000000000000000000, 4.00000000000000000000, 4.00000000000000000000, 4.00000000000000000000, 4.00000000000000000000, 4.00000000000000000000, 4.00000000000000000000, 1671.00000000000000000000, 1680.00000000000000000000, 0.00000000000000000000
56.00000000000000000000, 0.00000000000000000000, 4308.71784335606300000000, 4458.97424993822550000000, 4410.25630241158520000000, 5026.15372324836610000000, 4295.89733084905220000000, 4341.53835537400940000000, 4088.20502823548350000000, 4466.15373694215120000000, 4497.43578745925610000000, 4857.43577865610950000000, 4221.53835830839220000000, 4078.46143873015580000000, 4091.79477173744680000000, 4433.33322492420390000000, 0.00000000000000000000, 4.00000000000000000000, 4.00000000000000000000, 4.00000000000000000000, 4.00000000000000000000, 4.00000000000000000000, 3.00000000000000000000, 4.00000000000000000000, 4.00000000000000000000, 4.00000000000000000000, 4.00000000000000000000, 4.00000000000000000000, 4.00000000000000000000, 4.00000000000000000000, 4.00000000000000000000, 4.00000000000000000000, 4.00000000000000000000, 1672.00000000000000000000, 1681.00000000000000000000, 0.00000000000000000000
57.00000000000000000000, 0.00000000000000000000, 4313.33322785858670000000, 4466.66655744243140000000, 4409.23066141102480000000, 5031.79474875145120000000, 4303.07681785297880000000, 4321.53835586307380000000, 4064.61528522258460000000, 4444.10245543009300000000, 4484.10245445196600000000, 4863.07680415919370000000, 4227.17938381147630000000, 4073.84605422763210000000, 4095.89733573968990000000, 4440.51271192813060000000, 0.00000000000000000000, 4.00000000000000000000, 4.00000000000000000000, 4.00000000000000000000, 4.00000000000000000000, 4.00000000000000000000, 3.00000000000000000000, 4.00000000000000000000, 4.00000000000000000000, 4.00000000000000000000, 4.00000000000000000000, 4.00000000000000000000, 4.00000000000000000000, 4.00000000000000000000, 4.00000000000000000000, 4.00000000000000000000, 4.00000000000000000000, 1672.00000000000000000000, 1681.00000000000000000000, 0.00000000000000000000
58.00000000000000000000, 0.00000000000000000000, 4319.99989436223220000000, 4475.38450594719870000000, 4411.28194341214660000000, 5039.48705625565710000000, 4312.82040735830650000000, 4328.71784286699950000000, 4070.25631072566920000000, 4445.12809643065430000000, 4488.20501845420860000000, 4857.94859915638970000000, 4231.28194781371990000000, 4078.46143873015580000000, 4099.99989974193340000000, 4446.15373743121470000000, 0.00000000000000000000, 4.00000000000000000000, 4.00000000000000000000, 4.00000000000000000000, 4.00000000000000000000, 4.00000000000000000000, 3.00000000000000000000, 4.00000000000000000000, 4.00000000000000000000, 4.00000000000000000000, 4.00000000000000000000, 4.00000000000000000000, 4.00000000000000000000, 4.00000000000000000000, 4.00000000000000000000, 4.00000000000000000000, 4.00000000000000000000, 1673.00000000000000000000, 1682.00000000000000000000, 0.00000000000000000000
59.00000000000000000000, 0.00000000000000000000, 4326.66656086587770000000, 4475.38450594719870000000, 4416.92296891523070000000, 5038.97423575537690000000, 4312.82040735830650000000, 4351.79476537961820000000, 4089.23066923604440000000, 4458.97424993822550000000, 4497.94860795953720000000, 4854.87167615470660000000, 4229.23066581259810000000, 4087.69220773520330000000, 4100.51272024221360000000, 4446.66655793149490000000, 0.00000000000000000000, 4.00000000000000000000, 4.00000000000000000000, 4.00000000000000000000, 4.00000000000000000000, 4.00000000000000000000, 3.00000000000000000000, 4.00000000000000000000, 4.00000000000000000000, 4.00000000000000000000, 4.00000000000000000000, 4.00000000000000000000, 4.00000000000000000000, 4.00000000000000000000, 4.00000000000000000000, 4.00000000000000000000, 4.00000000000000000000, 1673.00000000000000000000, 1681.00000000000000000000, 0.00000000000000000000
60.00000000000000000000, 0.00000000000000000000, 4325.64091986531640000000, 4473.33322394607690000000, 4416.92296891523070000000, 5035.38449225341360000000, 4305.64092035438080000000, 4355.38450888158060000000, 4093.33323323828790000000, 4461.53835243962750000000, 4496.41014645869560000000, 4859.48706065723040000000, 4222.05117880867240000000, 4085.12810523380130000000, 4094.35887423884880000000, 4445.64091693093450000000, 0.00000000000000000000, 4.00000000000000000000, 4.00000000000000000000, 4.00000000000000000000, 4.00000000000000000000, 4.00000000000000000000, 3.00000000000000000000, 4.00000000000000000000, 4.00000000000000000000, 4.00000000000000000000, 4.00000000000000000000, 4.00000000000000000000, 4.00000000000000000000, 4.00000000000000000000, 4.00000000000000000000, 4.00000000000000000000, 4.00000000000000000000, 1674.00000000000000000000, 1682.00000000000000000000, 0.00000000000000000000
61.00000000000000000000, 0.00000000000000000000, 4318.46143286139070000000, 4469.74348044411360000000, 4413.84604591354860000000, 5032.82038975201160000000, 4302.05117685241750000000, 4343.07681687485090000000, 4087.17938723492310000000, 4457.94860893766420000000, 4496.92296695897580000000, 4860.51270165779170000000, 4223.07681980923370000000, 4079.99990023099690000000, 4090.76913073688590000000, 4444.10245543009300000000, 0.00000000000000000000, 4.00000000000000000000, 4.00000000000000000000, 4.00000000000000000000, 4.00000000000000000000, 4.00000000000000000000, 3.00000000000000000000, 4.00000000000000000000, 4.00000000000000000000, 4.00000000000000000000, 4.00000000000000000000, 4.00000000000000000000, 4.00000000000000000000, 4.00000000000000000000, 4.00000000000000000000, 4.00000000000000000000, 4.00000000000000000000, 1673.00000000000000000000, 1682.00000000000000000000, 0.00000000000000000000
62.00000000000000000000, 0.00000000000000000000, 4314.35886885914720000000, 4463.07681394046810000000, 4414.35886641382880000000, 5028.20500524948780000000, 4299.48707435101550000000, 4338.46143237232720000000, 4085.12810523380130000000, 4463.07681394046810000000, 4504.10245396290160000000, 4858.97424015695010000000, 4232.82040931456140000000, 4083.58964373295980000000, 4095.89733573968990000000, 4442.56399392925140000000, 0.00000000000000000000, 4.00000000000000000000, 4.00000000000000000000, 4.00000000000000000000, 4.00000000000000000000, 4.00000000000000000000, 3.00000000000000000000, 4.00000000000000000000, 4.00000000000000000000, 4.00000000000000000000, 4.00000000000000000000, 4.00000000000000000000, 4.00000000000000000000, 4.00000000000000000000, 4.00000000000000000000, 4.00000000000000000000, 4.00000000000000000000, 1675.00000000000000000000, 1684.00000000000000000000, 0.00000000000000000000
63.00000000000000000000, 0.00000000000000000000, 4314.87168935942830000000, 4461.02553193934640000000, 4414.87168691410900000000, 5027.17936424892740000000, 4301.02553585185710000000, 4344.61527837569250000000, 4088.71784873576420000000, 4474.87168544691850000000, 4506.66655646430350000000, 4864.61526566003520000000, 4234.35887081540300000000, 4089.23066923604440000000, 4103.58964324389580000000, 4446.15373743121470000000, 0.00000000000000000000, 4.00000000000000000000, 4.00000000000000000000, 4.00000000000000000000, 4.00000000000000000000, 4.00000000000000000000, 3.00000000000000000000, 4.00000000000000000000, 4.00000000000000000000, 4.00000000000000000000, 4.00000000000000000000, 4.00000000000000000000, 4.00000000000000000000, 4.00000000000000000000, 4.00000000000000000000, 4.00000000000000000000, 4.00000000000000000000, 1675.00000000000000000000, 1684.00000000000000000000, 0.00000000000000000000
64.00000000000000000000, 0.00000000000000000000, 4317.43579186083020000000, 4463.58963444074930000000, 4415.38450741439010000000, 5029.23064625004920000000, 4303.58963835325900000000, 4349.23066287821620000000, 4093.33323323828790000000, 4478.97424944916110000000, 4505.64091546374310000000, 4874.35885516536290000000, 4231.79476831400010000000, 4090.76913073688590000000, 4101.02554074249380000000, 4447.69219893205630000000, 411.00000000000000000000, 4.00000000000000000000, 4.00000000000000000000, 4.00000000000000000000, 4.00000000000000000000, 4.00000000000000000000, 3.00000000000000000000, 4.00000000000000000000, 4.00000000000000000000, 4.00000000000000000000, 4.00000000000000000000, 4.00000000000000000000, 4.00000000000000000000, 4.00000000000000000000, 4.00000000000000000000, 4.00000000000000000000, 4.00000000000000000000, 1675.00000000000000000000, 1686.00000000000000000000, 0.00000000000000000000
65.00000000000000000000, 0.00000000000000000000, 4316.92297136055000000000, 4461.02553193934640000000, 4414.35886641382880000000, 5027.69218474920760000000, 4300.51271535157590000000, 4345.12809887597270000000, 4093.84605373856810000000, 4473.84604444635720000000, 4504.10245396290160000000, 4872.30757316424110000000, 4233.84605031512180000000, 4087.17938723492310000000, 4092.82041273800720000000, 4441.02553242841080000000, 445.00000000000000000000, 4.00000000000000000000, 4.00000000000000000000, 4.00000000000000000000, 4.00000000000000000000, 4.00000000000000000000, 3.00000000000000000000, 4.00000000000000000000, 4.00000000000000000000, 4.00000000000000000000, 4.00000000000000000000, 4.00000000000000000000, 4.00000000000000000000, 4.00000000000000000000, 4.00000000000000000000, 4.00000000000000000000, 4.00000000000000000000, 1676.00000000000000000000, 1685.00000000000000000000, 0.00000000000000000000
66.00000000000000000000, 0.00000000000000000000, 4311.28194585746500000000, 4456.41014743682260000000, 4411.79476391242680000000, 5023.58962074696410000000, 4295.38451034877200000000, 4345.12809887597270000000, 4093.33323323828790000000, 4473.84604444635720000000, 4506.15373596402330000000, 4863.07680415919370000000, 4225.12810181035550000000, 4078.97425923043600000000, 4087.69220773520330000000, 4432.82040442392370000000, 416.00000000000000000000, 4.00000000000000000000, 4.00000000000000000000, 4.00000000000000000000, 4.00000000000000000000, 4.00000000000000000000, 3.00000000000000000000, 4.00000000000000000000, 4.00000000000000000000, 4.00000000000000000000, 4.00000000000000000000, 4.00000000000000000000, 4.00000000000000000000, 4.00000000000000000000, 4.00000000000000000000, 4.00000000000000000000, 4.00000000000000000000, 1675.00000000000000000000, 1686.00000000000000000000, 0.00000000000000000000
67.00000000000000000000, 0.00000000000000000000, 4306.66656135494120000000, 4456.41014743682260000000, 4409.74348191130500000000, 5021.02551824556210000000, 4294.87168984849180000000, 4350.76912437905680000000, 4092.82041273800720000000, 4472.82040344579670000000, 4509.23065896570640000000, 4866.66654766115700000000, 4212.82040980362490000000, 4073.84605422763210000000, 4085.12810523380130000000, 4428.20501992140000000000, 453.00000000000000000000, 4.00000000000000000000, 4.00000000000000000000, 4.00000000000000000000, 4.00000000000000000000, 4.00000000000000000000, 3.00000000000000000000, 4.00000000000000000000, 4.00000000000000000000, 4.00000000000000000000, 4.00000000000000000000, 4.00000000000000000000, 4.00000000000000000000, 4.00000000000000000000, 4.00000000000000000000, 4.00000000000000000000, 4.00000000000000000000, 1677.00000000000000000000, 1686.00000000000000000000, 0.00000000000000000000
68.00000000000000000000, 0.00000000000000000000, 4309.23066385634320000000, 4457.94860893766420000000, 4409.23066141102480000000, 5022.05115924612260000000, 4299.99989485129570000000, 4349.23066287821620000000, 4090.76913073688590000000, 4461.53835243962750000000, 4502.56399246206090000000, 4868.20500916199760000000, 4215.38451230502690000000, 4074.87169522819290000000, 4080.51272073127760000000, 4428.71784042168020000000, 467.00000000000000000000, 4.00000000000000000000, 4.00000000000000000000, 4.00000000000000000000, 4.00000000000000000000, 4.00000000000000000000, 3.00000000000000000000, 4.00000000000000000000, 4.00000000000000000000, 4.00000000000000000000, 4.00000000000000000000, 4.00000000000000000000, 4.00000000000000000000, 4.00000000000000000000, 4.00000000000000000000, 4.00000000000000000000, 4.00000000000000000000, 1676.00000000000000000000, 1684.00000000000000000000, 0.00000000000000000000
69.00000000000000000000, 0.00000000000000000000, 4313.33322785858670000000, 4461.02553193934640000000, 4410.76912291186640000000, 5030.25628725060960000000, 4307.17938185522140000000, 4347.17938087709440000000, 4093.33323323828790000000, 4464.10245494102950000000, 4496.41014645869560000000, 4864.61526566003520000000, 4218.97425580699020000000, 4077.43579772959490000000, 4080.51272073127760000000, 4431.28194292308220000000, 345.00000000000000000000, 4.00000000000000000000, 4.00000000000000000000, 4.00000000000000000000, 4.00000000000000000000, 4.00000000000000000000, 3.00000000000000000000, 4.00000000000000000000, 4.00000000000000000000, 4.00000000000000000000, 4.00000000000000000000, 4.00000000000000000000, 4.00000000000000000000, 4.00000000000000000000, 4.00000000000000000000, 4.00000000000000000000, 4.00000000000000000000, 1677.00000000000000000000, 1685.00000000000000000000, 0.00000000000000000000
70.00000000000000000000, 0.00000000000000000000, 4310.76912535718470000000, 4462.56399344018790000000, 4412.30758441270700000000, 5032.30756925173140000000, 4313.33322785858670000000, 4348.20502187765490000000, 4092.30759223772700000000, 4473.33322394607690000000, 4504.61527446318270000000, 4864.61526566003520000000, 4216.41015330558820000000, 4073.84605422763210000000, 4084.10246423324040000000, 4430.25630192252170000000, 456.00000000000000000000, 4.00000000000000000000, 4.00000000000000000000, 4.00000000000000000000, 4.00000000000000000000, 4.00000000000000000000, 3.00000000000000000000, 4.00000000000000000000, 4.00000000000000000000, 4.00000000000000000000, 4.00000000000000000000, 4.00000000000000000000, 4.00000000000000000000, 4.00000000000000000000, 4.00000000000000000000, 4.00000000000000000000, 4.00000000000000000000, 1676.00000000000000000000, 1685.00000000000000000000, 0.00000000000000000000
71.00000000000000000000, 0.00000000000000000000, 4309.23066385634320000000, 4461.53835243962750000000, 4412.82040491298720000000, 5028.20500524948780000000, 4310.25630485690450000000, 4343.58963737513110000000, 4085.12810523380130000000, 4468.71783944355320000000, 4508.71783846542530000000, 4864.10244515975410000000, 4216.41015330558820000000, 4067.17938772398660000000, 4085.12810523380130000000, 4427.69219942111980000000, 425.00000000000000000000, 4.00000000000000000000, 4.00000000000000000000, 4.00000000000000000000, 4.00000000000000000000, 4.00000000000000000000, 3.00000000000000000000, 4.00000000000000000000, 4.00000000000000000000, 4.00000000000000000000, 4.00000000000000000000, 4.00000000000000000000, 4.00000000000000000000, 4.00000000000000000000, 4.00000000000000000000, 4.00000000000000000000, 4.00000000000000000000, 1677.00000000000000000000, 1685.00000000000000000000, 0.00000000000000000000
72.00000000000000000000, 0.00000000000000000000, 4312.30758685802630000000, 4463.58963444074930000000, 4413.84604591354860000000, 5030.76910775088980000000, 4308.20502285578280000000, 4338.97425287260740000000, 4086.15374623436220000000, 4464.61527544130970000000, 4497.94860795953720000000, 4864.10244515975410000000, 4220.51271730783080000000, 4071.28195172623010000000, 4085.64092573408150000000, 4428.71784042168020000000, 371.00000000000000000000, 4.00000000000000000000, 4.00000000000000000000, 4.00000000000000000000, 4.00000000000000000000, 4.00000000000000000000, 3.00000000000000000000, 4.00000000000000000000, 4.00000000000000000000, 4.00000000000000000000, 4.00000000000000000000, 4.00000000000000000000, 4.00000000000000000000, 4.00000000000000000000, 4.00000000000000000000, 4.00000000000000000000, 4.00000000000000000000, 1677.00000000000000000000, 1684.00000000000000000000, 0.00000000000000000000
73.00000000000000000000, 0.00000000000000000000, 4309.23066385634320000000, 4462.05117293990770000000, 4414.35886641382880000000, 5029.23064625004920000000, 4311.28194585746500000000, 4342.05117587429050000000, 4092.30759223772700000000, 4469.23065994383340000000, 4492.30758245645210000000, 4864.61526566003520000000, 4219.99989680755060000000, 4077.94861822987510000000, 4088.20502823548350000000, 4430.76912242280200000000, 415.00000000000000000000, 4.00000000000000000000, 4.00000000000000000000, 4.00000000000000000000, 4.00000000000000000000, 4.00000000000000000000, 3.00000000000000000000, 4.00000000000000000000, 4.00000000000000000000, 4.00000000000000000000, 4.00000000000000000000, 4.00000000000000000000, 4.00000000000000000000, 4.00000000000000000000, 4.00000000000000000000, 4.00000000000000000000, 4.00000000000000000000, 1676.00000000000000000000, 1685.00000000000000000000, 0.00000000000000000000
74.00000000000000000000, 0.00000000000000000000, 4298.46143335045510000000, 4451.28194243401870000000, 4408.71784091074460000000, 5017.94859524387990000000, 4305.64092035438080000000, 4344.10245787541130000000, 4091.28195123716610000000, 4464.10245494102950000000, 4499.99988996065800000000, 4863.58962465947390000000, 4216.92297380586840000000, 4071.79477222651030000000, 4086.66656673464240000000, 4428.71784042168020000000, 445.00000000000000000000, 4.00000000000000000000, 4.00000000000000000000, 4.00000000000000000000, 4.00000000000000000000, 4.00000000000000000000, 3.00000000000000000000, 4.00000000000000000000, 4.00000000000000000000, 4.00000000000000000000, 4.00000000000000000000, 4.00000000000000000000, 4.00000000000000000000, 4.00000000000000000000, 4.00000000000000000000, 4.00000000000000000000, 4.00000000000000000000, 1675.00000000000000000000, 1684.00000000000000000000, 0.00000000000000000000
75.00000000000000000000, 0.00000000000000000000, 4291.28194634652850000000, 4441.53835292869100000000, 4399.48707190569710000000, 5009.23064673911270000000, 4294.35886934821160000000, 4342.56399637457070000000, 4088.71784873576420000000, 4455.38450643626220000000, 4505.64091546374310000000, 4860.51270165779170000000, 4215.38451230502690000000, 4064.10246472230390000000, 4079.99990023099690000000, 4421.02553291747430000000, 399.00000000000000000000, 4.00000000000000000000, 4.00000000000000000000, 4.00000000000000000000, 4.00000000000000000000, 4.00000000000000000000, 3.00000000000000000000, 4.00000000000000000000, 4.00000000000000000000, 4.00000000000000000000, 4.00000000000000000000, 4.00000000000000000000, 4.00000000000000000000, 4.00000000000000000000, 4.00000000000000000000, 4.00000000000000000000, 4.00000000000000000000, 1675.00000000000000000000, 1685.00000000000000000000, 0.00000000000000000000
76.00000000000000000000, 0.00000000000000000000, 4291.28194634652850000000, 4441.02553242841080000000, 4396.41014890401400000000, 5010.25628773967310000000, 4295.89733084905220000000, 4343.58963737513110000000, 4090.76913073688590000000, 4462.56399344018790000000, 4502.05117196177980000000, 4865.12808616031540000000, 4214.35887130446640000000, 4062.56400322146280000000, 4078.46143873015580000000, 4414.35886641382880000000, 418.00000000000000000000, 4.00000000000000000000, 4.00000000000000000000, 4.00000000000000000000, 4.00000000000000000000, 4.00000000000000000000, 3.00000000000000000000, 4.00000000000000000000, 4.00000000000000000000, 4.00000000000000000000, 4.00000000000000000000, 4.00000000000000000000, 4.00000000000000000000, 4.00000000000000000000, 4.00000000000000000000, 4.00000000000000000000, 4.00000000000000000000, 1673.00000000000000000000, 1684.00000000000000000000, 0.00000000000000000000
77.00000000000000000000, 0.00000000000000000000, 4290.25630534596800000000, 4443.07681442953250000000, 4395.38450790345360000000, 5014.87167224219680000000, 4305.64092035438080000000, 4349.23066287821620000000, 4094.87169473912900000000, 4473.84604444635720000000, 4505.64091546374310000000, 4874.87167566564310000000, 4218.46143530671000000000, 4063.07682372174350000000, 4083.58964373295980000000, 4419.48707141663270000000, 401.00000000000000000000, 4.00000000000000000000, 4.00000000000000000000, 4.00000000000000000000, 4.00000000000000000000, 4.00000000000000000000, 3.00000000000000000000, 4.00000000000000000000, 4.00000000000000000000, 4.00000000000000000000, 4.00000000000000000000, 4.00000000000000000000, 4.00000000000000000000, 4.00000000000000000000, 4.00000000000000000000, 4.00000000000000000000, 4.00000000000000000000, 1673.00000000000000000000, 1684.00000000000000000000, 0.00000000000000000000
78.00000000000000000000, 0.00000000000000000000, 4293.84604884793040000000, 4448.71783993261670000000, 4398.46143090513580000000, 5016.92295424331860000000, 4304.10245885353920000000, 4349.74348337849640000000, 4095.89733573968990000000, 4476.41014694775910000000, 4518.46142797075390000000, 4880.51270116872820000000, 4227.17938381147630000000, 4068.20502872454740000000, 4088.71784873576420000000, 4430.25630192252170000000, 445.00000000000000000000, 4.00000000000000000000, 4.00000000000000000000, 4.00000000000000000000, 4.00000000000000000000, 4.00000000000000000000, 3.00000000000000000000, 4.00000000000000000000, 4.00000000000000000000, 4.00000000000000000000, 4.00000000000000000000, 4.00000000000000000000, 4.00000000000000000000, 4.00000000000000000000, 4.00000000000000000000, 4.00000000000000000000, 4.00000000000000000000, 1672.00000000000000000000, 1684.00000000000000000000, 0.00000000000000000000
79.00000000000000000000, 0.00000000000000000000, 4304.10245885353920000000, 4458.97424993822550000000, 4408.20502041046350000000, 5018.97423624444040000000, 4295.38451034877200000000, 4341.02553487372920000000, 4094.87169473912900000000, 4473.33322394607690000000, 4516.41014596963210000000, 4879.99988066844710000000, 4228.20502481203770000000, 4076.41015672903400000000, 4091.28195123716610000000, 4431.28194292308220000000, 399.00000000000000000000, 4.00000000000000000000, 4.00000000000000000000, 4.00000000000000000000, 4.00000000000000000000, 4.00000000000000000000, 3.00000000000000000000, 4.00000000000000000000, 4.00000000000000000000, 4.00000000000000000000, 4.00000000000000000000, 4.00000000000000000000, 4.00000000000000000000, 4.00000000000000000000, 4.00000000000000000000, 4.00000000000000000000, 4.00000000000000000000, 1671.00000000000000000000, 1685.00000000000000000000, 0.00000000000000000000
80.00000000000000000000, 0.00000000000000000000, 4308.20502285578280000000, 4461.02553193934640000000, 4410.76912291186640000000, 5023.07680024668390000000, 4300.51271535157590000000, 4342.56399637457070000000, 4093.84605373856810000000, 4475.38450594719870000000, 4505.64091546374310000000, 4873.33321416480160000000, 4224.61528131007440000000, 4077.94861822987510000000, 4093.33323323828790000000, 4429.23066092196130000000, 418.00000000000000000000, 4.00000000000000000000, 4.00000000000000000000, 4.00000000000000000000, 4.00000000000000000000, 4.00000000000000000000, 3.00000000000000000000, 4.00000000000000000000, 4.00000000000000000000, 4.00000000000000000000, 4.00000000000000000000, 4.00000000000000000000, 4.00000000000000000000, 4.00000000000000000000, 4.00000000000000000000, 4.00000000000000000000, 4.00000000000000000000, 1670.00000000000000000000, 1685.00000000000000000000, 0.00000000000000000000
81.00000000000000000000, 0.00000000000000000000, 4305.64092035438080000000, 4458.46142943794440000000, 4407.69219991018330000000, 5026.15372324836610000000, 4308.71784335606300000000, 4348.20502187765490000000, 4093.84605373856810000000, 4472.30758294551560000000, 4506.66655646430350000000, 4865.64090666059560000000, 4221.02553780811190000000, 4074.35887472791230000000, 4089.23066923604440000000, 4429.74348142224150000000, 401.00000000000000000000, 4.00000000000000000000, 4.00000000000000000000, 4.00000000000000000000, 4.00000000000000000000, 4.00000000000000000000, 3.00000000000000000000, 4.00000000000000000000, 4.00000000000000000000, 4.00000000000000000000, 4.00000000000000000000, 4.00000000000000000000, 4.00000000000000000000, 4.00000000000000000000, 4.00000000000000000000, 4.00000000000000000000, 4.00000000000000000000, 1671.00000000000000000000, 1686.00000000000000000000, 0.00000000000000000000
82.00000000000000000000, 0.00000000000000000000, 4301.53835635213730000000, 4458.46142943794440000000, 4407.17937940990300000000, 5021.53833874584230000000, 4301.02553585185710000000, 4341.53835537400940000000, 4090.25631023660530000000, 4458.46142943794440000000, 4502.56399246206090000000, 4857.43577865610950000000, 4208.71784580138140000000, 4069.23066972510830000000, 4078.46143873015580000000, 4424.61527641943760000000, 445.00000000000000000000, 4.00000000000000000000, 4.00000000000000000000, 4.00000000000000000000, 4.00000000000000000000, 4.00000000000000000000, 3.00000000000000000000, 4.00000000000000000000, 4.00000000000000000000, 4.00000000000000000000, 4.00000000000000000000, 4.00000000000000000000, 4.00000000000000000000, 4.00000000000000000000, 4.00000000000000000000, 4.00000000000000000000, 4.00000000000000000000, 1670.00000000000000000000, 1685.00000000000000000000, 0.00000000000000000000
83.00000000000000000000, 0.00000000000000000000, 4297.94861285017400000000, 4452.30758343458000000000, 4403.58963590793970000000, 5015.89731324275820000000, 4291.79476684680960000000, 4339.48707337288760000000, 4088.20502823548350000000, 4454.87168593598200000000, 4492.30758245645210000000, 4848.20500965106200000000, 4197.43579479521210000000, 4060.51272122034110000000, 4068.20502872454740000000, 4416.41014841495050000000, 399.00000000000000000000, 4.00000000000000000000, 4.00000000000000000000, 4.00000000000000000000, 4.00000000000000000000, 4.00000000000000000000, 3.00000000000000000000, 4.00000000000000000000, 4.00000000000000000000, 4.00000000000000000000, 4.00000000000000000000, 4.00000000000000000000, 4.00000000000000000000, 4.00000000000000000000, 4.00000000000000000000, 4.00000000000000000000, 4.00000000000000000000, 1669.00000000000000000000, 1687.00000000000000000000, 0.00000000000000000000
84.00000000000000000000, 0.00000000000000000000, 4295.38451034877200000000, 4444.10245543009300000000, 4396.92296940429420000000, 5012.82039024107510000000, 4294.35886934821160000000, 4350.25630387877660000000, 4090.76913073688590000000, 4460.51271143906620000000, 4497.94860795953720000000, 4844.10244564881850000000, 4199.48707679633390000000, 4057.43579821865890000000, 4068.20502872454740000000, 4412.30758441270700000000, 418.00000000000000000000, 4.00000000000000000000, 4.00000000000000000000, 4.00000000000000000000, 4.00000000000000000000, 4.00000000000000000000, 3.00000000000000000000, 4.00000000000000000000, 4.00000000000000000000, 4.00000000000000000000, 4.00000000000000000000, 4.00000000000000000000, 4.00000000000000000000, 4.00000000000000000000, 4.00000000000000000000, 4.00000000000000000000, 4.00000000000000000000, 1672.00000000000000000000, 1684.00000000000000000000, 0.00000000000000000000
85.00000000000000000000, 0.00000000000000000000, 4294.87168984849180000000, 4443.07681442953250000000, 4401.02553340653780000000, 5010.25628773967310000000, 4296.92297184961350000000, 4354.35886788102020000000, 4091.28195123716610000000, 4464.10245494102950000000, 4506.15373596402330000000, 4848.71783015134220000000, 4202.05117929773590000000, 4062.05118272118260000000, 4072.30759272679100000000, 4412.30758441270700000000, 401.00000000000000000000, 4.00000000000000000000, 4.00000000000000000000, 4.00000000000000000000, 4.00000000000000000000, 4.00000000000000000000, 3.00000000000000000000, 4.00000000000000000000, 4.00000000000000000000, 4.00000000000000000000, 4.00000000000000000000, 4.00000000000000000000, 4.00000000000000000000, 4.00000000000000000000, 4.00000000000000000000, 4.00000000000000000000, 4.00000000000000000000, 1671.00000000000000000000, 1684.00000000000000000000, 0.00000000000000000000
86.00000000000000000000, 0.00000000000000000000, 4297.43579234989370000000, 4443.58963492981270000000, 4406.15373840934260000000, 5009.74346723939290000000, 4294.87168984849180000000, 4348.20502187765490000000, 4091.28195123716610000000, 4464.61527544130970000000, 4498.97424896009760000000, 4855.89731715526800000000, 4202.05117929773590000000, 4064.61528522258460000000, 4072.30759272679100000000, 4418.46143041607230000000, 445.00000000000000000000, 4.00000000000000000000, 4.00000000000000000000, 4.00000000000000000000, 4.00000000000000000000, 4.00000000000000000000, 3.00000000000000000000, 4.00000000000000000000, 4.00000000000000000000, 4.00000000000000000000, 4.00000000000000000000, 4.00000000000000000000, 4.00000000000000000000, 4.00000000000000000000, 4.00000000000000000000, 4.00000000000000000000, 4.00000000000000000000, 1674.00000000000000000000, 1684.00000000000000000000, 0.00000000000000000000
87.00000000000000000000, 0.00000000000000000000, 4304.10245885353920000000, 4448.71783993261670000000, 4406.15373840934260000000, 5015.89731324275820000000, 4298.97425385073530000000, 4343.07681687485090000000, 4092.82041273800720000000, 4463.58963444074930000000, 4497.94860795953720000000, 4858.97424015695010000000, 4210.76912780250310000000, 4068.71784922482770000000, 4079.99990023099690000000, 4427.17937892083960000000, 399.00000000000000000000, 4.00000000000000000000, 4.00000000000000000000, 4.00000000000000000000, 4.00000000000000000000, 4.00000000000000000000, 3.00000000000000000000, 4.00000000000000000000, 4.00000000000000000000, 4.00000000000000000000, 4.00000000000000000000, 4.00000000000000000000, 4.00000000000000000000, 4.00000000000000000000, 4.00000000000000000000, 4.00000000000000000000, 4.00000000000000000000, 1675.00000000000000000000, 1683.00000000000000000000, 0.00000000000000000000
88.00000000000000000000, 0.00000000000000000000, 4312.82040735830650000000, 4459.48707043850570000000, 4410.25630241158520000000, 5025.64090274808590000000, 4304.61527935381950000000, 4342.56399637457070000000, 4089.74348973632500000000, 4461.02553193934640000000, 4507.17937696458470000000, 4859.48706065723040000000, 4217.43579430614860000000, 4074.87169522819290000000, 4090.76913073688590000000, 4431.28194292308220000000, 418.00000000000000000000, 4.00000000000000000000, 4.00000000000000000000, 4.00000000000000000000, 4.00000000000000000000, 4.00000000000000000000, 3.00000000000000000000, 4.00000000000000000000, 4.00000000000000000000, 4.00000000000000000000, 4.00000000000000000000, 4.00000000000000000000, 4.00000000000000000000, 4.00000000000000000000, 4.00000000000000000000, 4.00000000000000000000, 4.00000000000000000000, 1677.00000000000000000000, 1685.00000000000000000000, 0.00000000000000000000
89.00000000000000000000, 0.00000000000000000000, 4312.82040735830650000000, 4461.53835243962750000000, 4415.38450741439010000000, 5026.15372324836610000000, 4302.56399735269770000000, 4344.61527837569250000000, 4086.66656673464240000000, 4459.99989093878590000000, 4502.56399246206090000000, 4858.97424015695010000000, 4214.87169180474670000000, 4075.38451572847320000000, 4089.74348973632500000000, 4431.28194292308220000000, 401.00000000000000000000, 4.00000000000000000000, 4.00000000000000000000, 4.00000000000000000000, 4.00000000000000000000, 4.00000000000000000000, 3.00000000000000000000, 4.00000000000000000000, 4.00000000000000000000, 4.00000000000000000000, 4.00000000000000000000, 4.00000000000000000000, 4.00000000000000000000, 4.00000000000000000000, 4.00000000000000000000, 4.00000000000000000000, 4.00000000000000000000, 1678.00000000000000000000, 1684.00000000000000000000, 0.00000000000000000000
90.00000000000000000000, 0.00000000000000000000, 4310.25630485690450000000, 4456.92296793710370000000, 4413.33322541326830000000, 5023.07680024668390000000, 4299.48707435101550000000, 4345.64091937625290000000, 4088.71784873576420000000, 4461.02553193934640000000, 4493.84604395729370000000, 4857.94859915638970000000, 4213.33323030390510000000, 4072.30759272679100000000, 4088.20502823548350000000, 4431.28194292308220000000, 445.00000000000000000000, 4.00000000000000000000, 4.00000000000000000000, 4.00000000000000000000, 4.00000000000000000000, 4.00000000000000000000, 3.00000000000000000000, 4.00000000000000000000, 4.00000000000000000000, 4.00000000000000000000, 4.00000000000000000000, 4.00000000000000000000, 4.00000000000000000000, 4.00000000000000000000, 4.00000000000000000000, 4.00000000000000000000, 4.00000000000000000000, 1679.00000000000000000000, 1684.00000000000000000000, 0.00000000000000000000
91.00000000000000000000, 0.00000000000000000000, 4310.25630485690450000000, 4458.46142943794440000000, 4405.64091790906150000000, 5023.07680024668390000000, 4297.43579234989370000000, 4344.10245787541130000000, 4090.76913073688590000000, 4462.05117293990770000000, 4494.87168495785410000000, 4859.48706065723040000000, 4215.38451230502690000000, 4067.17938772398660000000, 4091.28195123716610000000, 4429.23066092196130000000, 399.00000000000000000000, 4.00000000000000000000, 4.00000000000000000000, 4.00000000000000000000, 4.00000000000000000000, 4.00000000000000000000, 3.00000000000000000000, 4.00000000000000000000, 4.00000000000000000000, 4.00000000000000000000, 4.00000000000000000000, 4.00000000000000000000, 4.00000000000000000000, 4.00000000000000000000, 4.00000000000000000000, 4.00000000000000000000, 4.00000000000000000000, 1679.00000000000000000000, 1684.00000000000000000000, 0.00000000000000000000
92.00000000000000000000, 0.00000000000000000000, 4307.69220235550260000000, 4458.46142943794440000000, 4404.61527690850110000000, 5021.02551824556210000000, 4295.38451034877200000000, 4341.53835537400940000000, 4089.74348973632500000000, 4460.51271143906620000000, 4495.38450545813430000000, 4858.97424015695010000000, 4216.41015330558820000000, 4062.56400322146280000000, 4086.66656673464240000000, 4426.15373792027820000000, 418.00000000000000000000, 4.00000000000000000000, 4.00000000000000000000, 4.00000000000000000000, 4.00000000000000000000, 4.00000000000000000000, 3.00000000000000000000, 4.00000000000000000000, 4.00000000000000000000, 4.00000000000000000000, 4.00000000000000000000, 4.00000000000000000000, 4.00000000000000000000, 4.00000000000000000000, 4.00000000000000000000, 4.00000000000000000000, 4.00000000000000000000, 1679.00000000000000000000, 1686.00000000000000000000, 0.00000000000000000000
93.00000000000000000000, 0.00000000000000000000, 4309.23066385634320000000, 4458.97424993822550000000, 4410.76912291186640000000, 5022.05115924612260000000, 4299.48707435101550000000, 4342.05117587429050000000, 4088.71784873576420000000, 4462.05117293990770000000, 4497.94860795953720000000, 4864.61526566003520000000, 4216.92297380586840000000, 4068.71784922482770000000, 4085.64092573408150000000, 4428.71784042168020000000, 401.00000000000000000000, 4.00000000000000000000, 4.00000000000000000000, 4.00000000000000000000, 4.00000000000000000000, 4.00000000000000000000, 3.00000000000000000000, 4.00000000000000000000, 4.00000000000000000000, 4.00000000000000000000, 4.00000000000000000000, 4.00000000000000000000, 4.00000000000000000000, 4.00000000000000000000, 4.00000000000000000000, 4.00000000000000000000, 4.00000000000000000000, 1679.00000000000000000000, 1685.00000000000000000000, 0.00000000000000000000
